%OpenBCI Raw EEG Data
%Number of channels = 4
%Sample Rate = 200.0 Hz
%First Column = SampleIndex
%Last Column = Timestamp 
%Other Columns = EEG data in microvolts followed by Accel Data (in G) interleaved with Aux Data
0, 86.06, 102.94, 57.87, 22.01, 0.000, 0.000, 0.000, 19:50:20.878, 1550339420878
1, 21.25, 23.77, 34.48, -3.57, 0.000, 0.000, 0.000, 19:50:20.893, 1550339420893
2, -5.86, -14.42, 101.94, 56.57, 0.000, 0.000, 0.000, 19:50:20.893, 1550339420893
3, 65.74, 73.11, 135.74, 98.70, 0.000, 0.000, 0.000, 19:50:20.908, 1550339420908
4, 94.37, 111.05, 59.48, 31.34, 0.000, 0.000, 0.000, 19:50:20.908, 1550339420908
5, 14.60, 21.70, 25.06, -8.45, 0.000, 0.000, 0.000, 19:50:20.908, 1550339420908
6, -7.10, -9.41, 105.74, 59.68, -0.224, 0.992, -0.032, 19:50:20.908, 1550339420908
7, 59.61, 64.67, 130.44, 81.77, -0.224, 0.992, -0.032, 19:50:20.922, 1550339420922
8, 81.12, 103.56, 53.80, 21.45, -0.224, 0.992, -0.032, 19:50:20.922, 1550339420922
9, 25.74, 25.80, 31.99, -5.35, -0.224, 0.992, -0.032, 19:50:20.937, 1550339420937
10, -4.79, -11.22, 109.44, 60.77, -0.224, 0.992, -0.032, 19:50:20.937, 1550339420937
11, 63.58, 70.26, 138.75, 90.28, -0.224, 0.992, -0.032, 19:50:20.938, 1550339420938
12, 91.81, 109.71, 57.98, 26.27, -0.224, 0.992, -0.032, 19:50:20.938, 1550339420938
13, 18.17, 19.90, 31.11, -4.58, -0.224, 0.992, -0.032, 19:50:20.953, 1550339420953
14, -3.88, -13.73, 107.50, 65.15, -0.224, 0.992, -0.032, 19:50:20.953, 1550339420953
15, 59.11, 62.06, 124.64, 83.08, -0.224, 0.992, -0.032, 19:50:20.967, 1550339420967
16, 89.03, 108.49, 55.46, 22.18, -0.224, 0.992, -0.032, 19:50:20.967, 1550339420967
17, 20.03, 23.68, 31.06, -6.91, -0.224, 0.992, -0.032, 19:50:20.968, 1550339420968
18, -4.83, -13.31, 105.44, 63.22, -0.224, 0.992, -0.032, 19:50:20.968, 1550339420968
19, 62.96, 68.64, 131.36, 90.37, -0.224, 0.992, -0.032, 19:50:20.982, 1550339420982
20, 86.50, 106.94, 56.98, 24.71, -0.224, 0.992, -0.032, 19:50:20.983, 1550339420983
21, 19.22, 27.35, 31.09, -4.98, -0.224, 0.992, -0.032, 19:50:20.998, 1550339420998
22, -5.55, -6.76, 112.61, 62.94, -0.224, 0.992, -0.032, 19:50:20.998, 1550339420998
23, 59.48, 67.61, 131.74, 89.06, -0.224, 0.992, -0.032, 19:50:20.998, 1550339420998
24, 91.39, 107.98, 58.26, 27.64, -0.224, 0.992, -0.032, 19:50:20.998, 1550339420998
25, 17.49, 22.42, 36.02, -5.99, -0.224, 0.992, -0.032, 19:50:21.014, 1550339421014
26, -10.45, -13.93, 105.10, 62.35, -0.208, 0.976, -0.032, 19:50:21.014, 1550339421014
27, 63.82, 69.80, 132.13, 92.39, -0.208, 0.976, -0.032, 19:50:21.028, 1550339421028
28, 86.28, 102.84, 49.76, 22.55, -0.208, 0.976, -0.032, 19:50:21.028, 1550339421028
29, 17.61, 21.36, 24.87, -0.96, -0.208, 0.976, -0.032, 19:50:21.028, 1550339421028
30, -5.59, -10.89, 104.10, 67.51, -0.208, 0.976, -0.032, 19:50:21.028, 1550339421028
31, 65.52, 74.55, 131.84, 95.87, -0.208, 0.976, -0.032, 19:50:21.043, 1550339421043
32, 89.53, 105.99, 49.05, 21.86, -0.208, 0.976, -0.032, 19:50:21.043, 1550339421043
33, 16.31, 21.02, 27.32, -9.00, -0.208, 0.976, -0.032, 19:50:21.057, 1550339421057
34, -4.92, -12.51, 101.06, 60.63, -0.208, 0.976, -0.032, 19:50:21.057, 1550339421057
35, 58.21, 64.64, 130.72, 84.74, -0.208, 0.976, -0.032, 19:50:21.057, 1550339421057
36, 85.53, 104.09, 53.17, 20.55, -0.208, 0.976, -0.032, 19:50:21.057, 1550339421057
37, 28.20, 28.09, 41.39, 3.93, -0.208, 0.976, -0.032, 19:50:21.072, 1550339421072
38, -10.38, -19.33, 102.51, 53.97, -0.208, 0.976, -0.032, 19:50:21.072, 1550339421072
39, 59.26, 65.38, 127.98, 85.17, -0.208, 0.976, -0.032, 19:50:21.087, 1550339421087
40, 91.58, 110.40, 61.60, 29.89, -0.208, 0.976, -0.032, 19:50:21.087, 1550339421087
41, 18.10, 24.56, 30.99, -6.97, -0.208, 0.976, -0.032, 19:50:21.088, 1550339421088
42, -3.32, -8.45, 110.66, 60.56, -0.208, 0.976, -0.032, 19:50:21.088, 1550339421088
43, 62.34, 65.64, 129.87, 86.60, -0.208, 0.976, -0.032, 19:50:21.103, 1550339421103
44, 84.53, 107.49, 57.69, 24.47, -0.208, 0.976, -0.032, 19:50:21.103, 1550339421103
45, 21.16, 23.14, 29.37, -1.94, -0.208, 0.976, -0.032, 19:50:21.117, 1550339421117
46, -4.35, -14.34, 106.58, 69.83, -0.240, 0.976, -0.016, 19:50:21.117, 1550339421117
47, 65.15, 69.40, 134.01, 92.07, -0.240, 0.976, -0.016, 19:50:21.118, 1550339421118
48, 89.77, 107.45, 51.25, 18.22, -0.240, 0.976, -0.016, 19:50:21.118, 1550339421118
49, 18.29, 20.27, 28.06, 0.77, -0.240, 0.976, -0.016, 19:50:21.132, 1550339421132
50, -10.15, -14.17, 99.66, 60.85, -0.240, 0.976, -0.016, 19:50:21.132, 1550339421132
51, 61.35, 66.76, 124.71, 89.75, -0.240, 0.976, -0.016, 19:50:21.147, 1550339421147
52, 84.68, 102.19, 51.70, 25.89, -0.240, 0.976, -0.016, 19:50:21.147, 1550339421147
53, 17.49, 21.51, 27.37, 1.94, -0.240, 0.976, -0.016, 19:50:21.148, 1550339421148
54, -2.12, -7.29, 103.68, 62.70, -0.240, 0.976, -0.016, 19:50:21.148, 1550339421148
55, 59.77, 68.10, 121.80, 89.50, -0.240, 0.976, -0.016, 19:50:21.162, 1550339421162
56, 87.24, 105.81, 55.08, 28.74, -0.240, 0.976, -0.016, 19:50:21.162, 1550339421162
57, 19.23, 23.45, 24.87, 0.70, -0.240, 0.976, -0.016, 19:50:21.177, 1550339421177
58, -2.22, -10.48, 107.60, 69.40, -0.240, 0.976, -0.016, 19:50:21.177, 1550339421177
59, 58.85, 64.38, 125.99, 94.65, -0.240, 0.976, -0.016, 19:50:21.178, 1550339421178
60, 82.81, 105.18, 54.88, 23.47, -0.240, 0.976, -0.016, 19:50:21.178, 1550339421178
61, 10.66, 20.62, 19.88, -14.37, -0.240, 0.976, -0.016, 19:50:21.192, 1550339421192
62, -11.38, -20.86, 93.23, 54.37, -0.240, 0.976, -0.016, 19:50:21.192, 1550339421192
63, 49.71, 53.45, 114.64, 68.80, -0.240, 0.976, -0.016, 19:50:21.207, 1550339421207
64, 77.76, 92.72, 36.93, -0.20, -0.240, 0.976, -0.016, 19:50:21.207, 1550339421207
65, 18.94, 23.56, 21.45, -14.16, -0.240, 0.976, -0.016, 19:50:21.208, 1550339421208
66, -14.31, -22.12, 91.61, 40.31, -0.224, 0.976, -0.032, 19:50:21.208, 1550339421208
67, 62.95, 71.10, 131.71, 85.88, -0.224, 0.976, -0.032, 19:50:21.223, 1550339421223
68, 97.93, 111.01, 69.42, 34.17, -0.224, 0.976, -0.032, 19:50:21.223, 1550339421223
69, 31.35, 33.78, 46.67, 18.97, -0.224, 0.976, -0.032, 19:50:21.237, 1550339421237
70, 3.06, -4.50, 114.38, 73.95, -0.224, 0.976, -0.032, 19:50:21.237, 1550339421237
71, 71.77, 74.04, 144.35, 104.47, -0.224, 0.976, -0.032, 19:50:21.238, 1550339421238
72, 94.39, 109.21, 59.19, 31.81, -0.224, 0.976, -0.032, 19:50:21.238, 1550339421238
73, 23.19, 31.40, 34.30, 5.85, -0.224, 0.976, -0.032, 19:50:21.253, 1550339421253
74, -2.65, -10.82, 103.08, 66.05, -0.224, 0.976, -0.032, 19:50:21.253, 1550339421253
75, 67.03, 71.82, 126.72, 96.70, -0.224, 0.976, -0.032, 19:50:21.268, 1550339421268
76, 87.89, 106.63, 54.76, 31.39, -0.224, 0.976, -0.032, 19:50:21.268, 1550339421268
77, 22.29, 22.21, 28.40, -2.86, -0.224, 0.976, -0.032, 19:50:21.268, 1550339421268
78, -2.93, -9.07, 107.99, 65.93, -0.224, 0.976, -0.032, 19:50:21.268, 1550339421268
79, 59.67, 61.35, 126.72, 89.40, -0.224, 0.976, -0.032, 19:50:21.283, 1550339421283
80, 86.49, 105.20, 52.06, 23.25, -0.224, 0.976, -0.032, 19:50:21.283, 1550339421283
81, 19.40, 26.74, 22.19, -4.03, -0.224, 0.976, -0.032, 19:50:21.297, 1550339421297
82, -8.16, -17.27, 101.78, 59.21, -0.224, 0.976, -0.032, 19:50:21.297, 1550339421297
83, 60.14, 64.85, 122.56, 88.07, -0.224, 0.976, -0.032, 19:50:21.305, 1550339421305
84, 84.31, 104.93, 49.61, 27.33, -0.224, 0.976, -0.032, 19:50:21.305, 1550339421305
85, 17.64, 25.57, 24.92, -0.09, -0.224, 0.976, -0.032, 19:50:21.312, 1550339421312
86, -0.77, -10.71, 105.80, 65.12, -0.240, 0.992, -0.032, 19:50:21.312, 1550339421312
87, 61.72, 68.31, 125.44, 89.85, -0.240, 0.992, -0.032, 19:50:21.327, 1550339421327
88, 86.54, 106.45, 51.71, 25.40, -0.240, 0.992, -0.032, 19:50:21.327, 1550339421327
89, 18.72, 21.01, 28.17, -7.14, -0.240, 0.992, -0.032, 19:50:21.328, 1550339421328
90, -8.03, -16.15, 103.61, 50.14, -0.240, 0.992, -0.032, 19:50:21.328, 1550339421328
91, 55.89, 59.18, 123.16, 70.73, -0.240, 0.992, -0.032, 19:50:21.342, 1550339421342
92, 84.86, 111.63, 62.43, 20.08, -0.240, 0.992, -0.032, 19:50:21.342, 1550339421342
93, 16.65, 18.74, 25.23, -5.61, -0.240, 0.992, -0.032, 19:50:21.360, 1550339421360
94, -8.54, -19.41, 97.35, 55.48, -0.240, 0.992, -0.032, 19:50:21.360, 1550339421360
95, 61.43, 62.96, 127.10, 89.33, -0.240, 0.992, -0.032, 19:50:21.360, 1550339421360
96, 85.75, 104.76, 51.17, 27.75, -0.240, 0.992, -0.032, 19:50:21.360, 1550339421360
97, 20.92, 23.96, 29.85, 3.72, -0.240, 0.992, -0.032, 19:50:21.372, 1550339421372
98, -8.67, -15.92, 99.52, 63.88, -0.240, 0.992, -0.032, 19:50:21.372, 1550339421372
99, 62.53, 64.45, 131.32, 97.71, -0.240, 0.992, -0.032, 19:50:21.387, 1550339421387
100, 77.68, 102.12, 45.37, 20.98, -0.240, 0.992, -0.032, 19:50:21.387, 1550339421387
101, 19.68, 21.11, 22.93, -9.06, -0.240, 0.992, -0.032, 19:50:21.388, 1550339421388
102, -0.24, -8.38, 109.60, 61.99, -0.240, 0.992, -0.032, 19:50:21.388, 1550339421388
103, 54.34, 61.64, 126.04, 84.37, -0.240, 0.992, -0.032, 19:50:21.402, 1550339421402
104, 92.67, 109.77, 63.99, 29.34, -0.240, 0.992, -0.032, 19:50:21.402, 1550339421402
105, 19.95, 22.11, 31.04, -6.23, -0.240, 0.992, -0.032, 19:50:21.417, 1550339421417
106, -3.59, -11.19, 107.88, 60.36, -0.224, 0.992, 0.000, 19:50:21.418, 1550339421418
107, 63.71, 71.26, 132.38, 83.62, -0.224, 0.992, 0.000, 19:50:21.418, 1550339421418
108, 86.10, 105.99, 55.76, 18.22, -0.224, 0.992, 0.000, 19:50:21.418, 1550339421418
109, 15.38, 25.42, 28.84, -10.18, -0.224, 0.992, 0.000, 19:50:21.433, 1550339421433
110, -11.10, -13.44, 108.83, 59.42, -0.224, 0.992, 0.000, 19:50:21.433, 1550339421433
111, 64.41, 72.84, 134.32, 92.71, -0.224, 0.992, 0.000, 19:50:21.448, 1550339421448
112, 88.68, 106.23, 57.98, 22.47, -0.224, 0.992, 0.000, 19:50:21.448, 1550339421448
113, 14.77, 17.72, 26.01, -14.72, -0.224, 0.992, 0.000, 19:50:21.448, 1550339421448
114, -6.16, -14.71, 99.45, 55.17, -0.224, 0.992, 0.000, 19:50:21.448, 1550339421448
115, 62.81, 62.86, 121.62, 82.27, -0.224, 0.992, 0.000, 19:50:21.464, 1550339421464
116, 86.33, 104.13, 59.03, 27.44, -0.224, 0.992, 0.000, 19:50:21.464, 1550339421464
117, 20.64, 24.78, 32.05, -3.53, -0.224, 0.992, 0.000, 19:50:21.478, 1550339421478
118, -5.06, -16.45, 106.98, 61.64, -0.224, 0.992, 0.000, 19:50:21.478, 1550339421478
119, 63.86, 70.04, 129.67, 93.52, -0.224, 0.992, 0.000, 19:50:21.478, 1550339421478
120, 84.85, 103.38, 52.58, 21.75, -0.224, 0.992, 0.000, 19:50:21.478, 1550339421478
121, 22.90, 31.37, 34.40, 3.84, -0.224, 0.992, 0.000, 19:50:21.493, 1550339421493
122, -3.24, -8.03, 108.85, 66.27, -0.224, 0.992, 0.000, 19:50:21.493, 1550339421493
123, 63.54, 66.74, 125.84, 83.61, -0.224, 0.992, 0.000, 19:50:21.508, 1550339421508
124, 90.65, 109.51, 58.26, 28.61, -0.224, 0.992, 0.000, 19:50:21.508, 1550339421508
125, 22.73, 32.21, 35.88, 7.70, -0.224, 0.992, 0.000, 19:50:21.509, 1550339421509
126, -10.63, -13.99, 99.21, 55.92, -0.224, 0.992, -0.032, 19:50:21.509, 1550339421509
127, 64.48, 69.17, 129.31, 99.03, -0.224, 0.992, -0.032, 19:50:21.522, 1550339421522
128, 89.98, 106.24, 56.49, 27.58, -0.224, 0.992, -0.032, 19:50:21.522, 1550339421522
129, 20.77, 27.10, 32.65, -0.48, -0.224, 0.992, -0.032, 19:50:21.537, 1550339421537
130, -4.55, -10.11, 108.25, 69.98, -0.224, 0.992, -0.032, 19:50:21.537, 1550339421537
131, 59.42, 66.85, 128.00, 85.63, -0.224, 0.992, -0.032, 19:50:21.537, 1550339421537
132, 87.86, 108.79, 61.20, 29.70, -0.224, 0.992, -0.032, 19:50:21.537, 1550339421537
133, 20.89, 22.24, 32.17, 2.16, -0.224, 0.992, -0.032, 19:50:21.552, 1550339421552
134, -13.18, -18.35, 92.21, 55.25, -0.224, 0.992, -0.032, 19:50:21.552, 1550339421552
135, 63.22, 67.61, 129.02, 87.35, -0.224, 0.992, -0.032, 19:50:21.569, 1550339421569
136, 87.43, 102.68, 53.87, 23.16, -0.224, 0.992, -0.032, 19:50:21.569, 1550339421569
137, 19.05, 23.86, 29.50, -3.20, -0.224, 0.992, -0.032, 19:50:21.569, 1550339421569
138, -7.28, -11.80, 106.69, 61.79, -0.224, 0.992, -0.032, 19:50:21.569, 1550339421569
139, 62.40, 69.44, 132.02, 89.10, -0.224, 0.992, -0.032, 19:50:21.582, 1550339421582
140, 91.33, 108.38, 57.44, 28.17, -0.224, 0.992, -0.032, 19:50:21.582, 1550339421582
141, 22.69, 24.14, 33.44, 2.01, -0.224, 0.992, -0.032, 19:50:21.597, 1550339421597
142, -4.03, -12.38, 104.93, 62.17, -0.224, 0.992, -0.032, 19:50:21.597, 1550339421597
143, 58.44, 66.47, 132.16, 91.11, -0.224, 0.992, -0.032, 19:50:21.598, 1550339421598
144, 91.39, 111.89, 62.44, 35.24, -0.224, 0.992, -0.032, 19:50:21.598, 1550339421598
145, 14.94, 21.13, 22.39, -5.71, -0.224, 0.992, -0.032, 19:50:21.612, 1550339421612
146, -5.88, -13.42, 105.89, 64.04, -0.240, 0.976, -0.032, 19:50:21.612, 1550339421612
147, 64.34, 68.44, 127.49, 89.49, -0.240, 0.976, -0.032, 19:50:21.627, 1550339421627
148, 88.34, 105.38, 58.85, 25.97, -0.240, 0.976, -0.032, 19:50:21.627, 1550339421627
149, 21.20, 25.48, 29.08, -1.95, -0.240, 0.976, -0.032, 19:50:21.628, 1550339421628
150, -7.82, -15.71, 103.57, 61.25, -0.240, 0.976, -0.032, 19:50:21.628, 1550339421628
151, 63.45, 66.51, 125.74, 90.83, -0.240, 0.976, -0.032, 19:50:21.649, 1550339421649
152, 89.85, 107.01, 55.80, 24.60, -0.240, 0.976, -0.032, 19:50:21.649, 1550339421649
153, 18.22, 25.43, 32.13, -3.35, -0.240, 0.976, -0.032, 19:50:21.657, 1550339421657
154, 0.27, -9.66, 106.13, 63.94, -0.240, 0.976, -0.032, 19:50:21.657, 1550339421657
155, 59.43, 68.48, 128.64, 84.10, -0.240, 0.976, -0.032, 19:50:21.658, 1550339421658
156, 87.21, 105.38, 54.56, 21.22, -0.240, 0.976, -0.032, 19:50:21.658, 1550339421658
157, 18.18, 21.59, 31.23, -1.89, -0.240, 0.976, -0.032, 19:50:21.672, 1550339421672
158, -4.75, -15.25, 103.83, 56.97, -0.240, 0.976, -0.032, 19:50:21.672, 1550339421672
159, 61.52, 68.47, 126.94, 87.57, -0.240, 0.976, -0.032, 19:50:21.690, 1550339421690
160, 93.94, 106.54, 54.02, 26.72, -0.240, 0.976, -0.032, 19:50:21.690, 1550339421690
161, 19.42, 25.94, 29.72, 0.08, -0.240, 0.976, -0.032, 19:50:21.690, 1550339421690
162, -9.64, -16.55, 101.87, 58.39, -0.240, 0.976, -0.032, 19:50:21.690, 1550339421690
163, 61.83, 64.80, 125.17, 87.52, -0.240, 0.976, -0.032, 19:50:21.702, 1550339421702
164, 85.40, 104.38, 55.09, 23.38, -0.240, 0.976, -0.032, 19:50:21.702, 1550339421702
165, 18.77, 22.31, 20.73, -8.23, -0.240, 0.976, -0.032, 19:50:21.719, 1550339421719
166, -3.36, -13.92, 109.46, 64.26, -0.224, 0.976, -0.032, 19:50:21.719, 1550339421719
167, 60.57, 65.24, 128.99, 86.61, -0.224, 0.976, -0.032, 19:50:21.719, 1550339421719
168, 86.01, 106.17, 56.21, 20.51, -0.224, 0.976, -0.032, 19:50:21.719, 1550339421719
169, 19.25, 24.05, 30.91, -2.29, -0.224, 0.976, -0.032, 19:50:21.732, 1550339421732
170, -5.08, -11.83, 106.60, 62.92, -0.224, 0.976, -0.032, 19:50:21.732, 1550339421732
171, 64.60, 72.13, 138.00, 95.18, -0.224, 0.976, -0.032, 19:50:21.747, 1550339421747
172, 86.76, 103.89, 56.01, 20.28, -0.224, 0.976, -0.032, 19:50:21.747, 1550339421747
173, 18.15, 24.72, 25.91, -5.02, -0.224, 0.976, -0.032, 19:50:21.748, 1550339421748
174, -2.34, -10.58, 105.45, 65.64, -0.224, 0.976, -0.032, 19:50:21.748, 1550339421748
175, 62.21, 69.18, 128.98, 89.54, -0.224, 0.976, -0.032, 19:50:21.763, 1550339421763
176, 88.59, 103.69, 50.47, 22.61, -0.224, 0.976, -0.032, 19:50:21.763, 1550339421763
177, 19.42, 23.76, 33.59, -4.16, -0.224, 0.976, -0.032, 19:50:21.778, 1550339421778
178, -6.88, -12.64, 102.24, 60.48, -0.224, 0.976, -0.032, 19:50:21.778, 1550339421778
179, 63.85, 68.30, 128.30, 86.69, -0.224, 0.976, -0.032, 19:50:21.779, 1550339421779
180, 91.07, 109.66, 64.30, 30.84, -0.224, 0.976, -0.032, 19:50:21.779, 1550339421779
181, 17.48, 22.69, 30.41, -2.75, -0.224, 0.976, -0.032, 19:50:21.793, 1550339421793
182, -6.04, -14.04, 105.64, 59.43, -0.224, 0.976, -0.032, 19:50:21.793, 1550339421793
183, 61.63, 68.16, 128.56, 86.95, -0.224, 0.976, -0.032, 19:50:21.807, 1550339421807
184, 91.02, 110.69, 63.15, 29.70, -0.224, 0.976, -0.032, 19:50:21.807, 1550339421807
185, 20.47, 24.65, 33.02, -2.04, -0.224, 0.976, -0.032, 19:50:21.808, 1550339421808
186, -4.70, -13.17, 109.17, 64.79, -0.240, 0.992, 0.000, 19:50:21.808, 1550339421808
187, 63.63, 70.20, 134.09, 87.84, -0.240, 0.992, 0.000, 19:50:21.823, 1550339421823
188, 86.83, 107.12, 58.26, 21.24, -0.240, 0.992, 0.000, 19:50:21.823, 1550339421823
189, 23.02, 31.66, 39.03, 3.10, -0.240, 0.992, 0.000, 19:50:21.837, 1550339421837
190, -12.31, -18.03, 100.51, 54.08, -0.240, 0.992, 0.000, 19:50:21.837, 1550339421837
191, 62.80, 69.95, 128.61, 83.31, -0.240, 0.992, 0.000, 19:50:21.838, 1550339421838
192, 87.48, 105.02, 55.60, 20.62, -0.240, 0.992, 0.000, 19:50:21.838, 1550339421838
193, 20.53, 23.17, 33.30, -0.40, -0.240, 0.992, 0.000, 19:50:21.854, 1550339421854
194, -2.48, -10.40, 103.11, 68.28, -0.240, 0.992, 0.000, 19:50:21.854, 1550339421854
195, 59.12, 67.24, 124.43, 88.01, -0.240, 0.992, 0.000, 19:50:21.868, 1550339421868
196, 90.70, 107.30, 55.66, 28.57, -0.240, 0.992, 0.000, 19:50:21.868, 1550339421868
197, 23.70, 29.42, 31.03, 6.66, -0.240, 0.992, 0.000, 19:50:21.868, 1550339421868
198, -6.63, -13.34, 104.20, 65.54, -0.240, 0.992, 0.000, 19:50:21.868, 1550339421868
199, 64.63, 69.57, 128.69, 98.45, -0.240, 0.992, 0.000, 19:50:21.882, 1550339421882
200, 90.86, 109.77, 58.26, 37.58, -0.240, 0.992, 0.000, 19:50:21.882, 1550339421882
0, 14.69, 21.98, 23.56, -0.74, -0.240, 0.992, 0.000, 19:50:21.882, 1550339421882
1, -11.50, -17.06, 97.16, 57.40, -0.240, 0.992, 0.000, 19:50:21.897, 1550339421897
2, 61.91, 69.45, 126.65, 91.76, -0.240, 0.992, 0.000, 19:50:21.897, 1550339421897
3, 82.29, 101.73, 49.62, 19.11, -0.240, 0.992, 0.000, 19:50:21.912, 1550339421912
4, 17.35, 18.17, 24.93, -7.71, -0.240, 0.992, 0.000, 19:50:21.912, 1550339421912
5, -12.35, -17.02, 98.57, 51.14, -0.240, 0.992, 0.000, 19:50:21.912, 1550339421912
6, 53.73, 62.02, 119.16, 72.78, -0.224, 0.976, -0.016, 19:50:21.912, 1550339421912
7, 79.21, 92.15, 41.56, 2.99, -0.224, 0.976, -0.016, 19:50:21.927, 1550339421927
8, 9.51, 9.88, 9.74, -25.83, -0.224, 0.976, -0.016, 19:50:21.927, 1550339421927
9, -15.23, -19.25, 99.33, 46.96, -0.224, 0.976, -0.016, 19:50:21.942, 1550339421942
10, 58.56, 63.91, 127.71, 82.65, -0.224, 0.976, -0.016, 19:50:21.942, 1550339421942
11, 93.35, 113.55, 65.55, 31.66, -0.224, 0.976, -0.016, 19:50:21.942, 1550339421942
12, 31.46, 29.64, 46.09, 11.29, -0.224, 0.976, -0.016, 19:50:21.942, 1550339421942
13, -0.71, -5.30, 114.96, 69.89, -0.224, 0.976, -0.016, 19:50:21.957, 1550339421957
14, 73.92, 78.25, 146.56, 101.47, -0.224, 0.976, -0.016, 19:50:21.957, 1550339421957
15, 96.34, 115.79, 66.67, 38.76, -0.224, 0.976, -0.016, 19:50:21.972, 1550339421972
16, 25.24, 28.19, 42.79, 6.66, -0.224, 0.976, -0.016, 19:50:21.972, 1550339421972
17, -2.91, -11.43, 112.49, 58.94, -0.224, 0.976, -0.016, 19:50:21.972, 1550339421972
18, 65.40, 69.24, 134.10, 89.31, -0.224, 0.976, -0.016, 19:50:21.972, 1550339421972
19, 91.00, 105.36, 64.43, 27.88, -0.224, 0.976, -0.016, 19:50:21.994, 1550339421994
20, 16.73, 20.73, 30.61, -6.47, -0.224, 0.976, -0.016, 19:50:21.994, 1550339421994
21, -6.95, -11.01, 106.23, 58.61, -0.224, 0.976, -0.016, 19:50:22.002, 1550339422002
22, 63.92, 70.28, 132.99, 89.88, -0.224, 0.976, -0.016, 19:50:22.002, 1550339422002
23, 84.90, 101.69, 50.91, 18.12, -0.224, 0.976, -0.016, 19:50:22.003, 1550339422003
24, 21.94, 26.03, 39.58, 2.70, -0.224, 0.976, -0.016, 19:50:22.003, 1550339422003
25, -8.45, -17.27, 106.61, 55.14, -0.224, 0.976, -0.016, 19:50:22.017, 1550339422017
26, 59.69, 71.05, 129.94, 80.96, -0.240, 0.976, -0.016, 19:50:22.017, 1550339422017
27, 93.19, 111.21, 58.58, 18.89, -0.240, 0.976, -0.016, 19:50:22.032, 1550339422032
28, 13.80, 17.51, 26.66, -15.98, -0.240, 0.976, -0.016, 19:50:22.032, 1550339422032
29, -8.49, -14.93, 107.60, 46.98, -0.240, 0.976, -0.016, 19:50:22.033, 1550339422033
30, 62.45, 70.95, 141.41, 83.57, -0.240, 0.976, -0.016, 19:50:22.033, 1550339422033
31, 92.58, 108.86, 64.58, 18.64, -0.240, 0.976, -0.016, 19:50:22.047, 1550339422047
32, 17.38, 18.76, 37.33, -14.80, -0.240, 0.976, -0.016, 19:50:22.047, 1550339422047
33, -12.32, -21.83, 103.88, 42.49, -0.240, 0.976, -0.016, 19:50:22.062, 1550339422062
34, 51.81, 61.36, 125.06, 70.83, -0.240, 0.976, -0.016, 19:50:22.062, 1550339422062
35, 86.54, 104.01, 61.66, 12.80, -0.240, 0.976, -0.016, 19:50:22.063, 1550339422063
36, 12.44, 15.89, 29.63, -15.94, -0.240, 0.976, -0.016, 19:50:22.063, 1550339422063
37, -6.67, -15.38, 109.54, 57.40, -0.240, 0.976, -0.016, 19:50:22.078, 1550339422078
38, 59.55, 66.33, 122.85, 71.96, -0.240, 0.976, -0.016, 19:50:22.078, 1550339422078
39, 84.80, 102.08, 56.67, 11.45, -0.240, 0.976, -0.016, 19:50:22.092, 1550339422092
40, 14.29, 18.22, 22.73, -6.59, -0.240, 0.976, -0.016, 19:50:22.092, 1550339422092
41, -9.55, -17.94, 101.79, 53.34, -0.240, 0.976, -0.016, 19:50:22.093, 1550339422093
42, 70.65, 76.42, 143.85, 93.86, -0.240, 0.976, -0.016, 19:50:22.093, 1550339422093
43, 94.22, 112.99, 77.19, 29.62, -0.240, 0.976, -0.016, 19:50:22.108, 1550339422108
44, 11.94, 18.30, 37.79, -29.47, -0.240, 0.976, -0.016, 19:50:22.108, 1550339422108
45, 27.32, 21.36, 155.73, 105.85, -0.240, 0.976, -0.016, 19:50:22.122, 1550339422122
46, 58.40, 60.63, 140.00, 49.46, -0.224, 0.976, -0.032, 19:50:22.122, 1550339422122
47, 72.90, 91.59, 66.24, -27.30, -0.224, 0.976, -0.032, 19:50:22.123, 1550339422123
48, 22.41, 24.49, 66.87, -34.92, -0.224, 0.976, -0.032, 19:50:22.123, 1550339422123
49, 12.97, 3.81, 175.56, 38.28, -0.224, 0.976, -0.032, 19:50:22.137, 1550339422137
50, 67.63, 75.20, 189.24, 30.24, -0.224, 0.976, -0.032, 19:50:22.137, 1550339422137
51, 93.03, 109.20, 142.78, -53.62, -0.224, 0.976, -0.032, 19:50:22.153, 1550339422153
52, -2.33, -1.31, 107.74, -149.34, -0.224, 0.976, -0.032, 19:50:22.153, 1550339422153
53, -5.78, -12.22, 251.16, -85.86, -0.224, 0.976, -0.032, 19:50:22.153, 1550339422153
54, 78.34, 82.19, 324.43, -75.23, -0.224, 0.976, -0.032, 19:50:22.153, 1550339422153
55, 93.45, 111.74, 273.71, -175.26, -0.224, 0.976, -0.032, 19:50:22.168, 1550339422168
56, 27.00, 28.38, 278.96, -219.44, -0.224, 0.976, -0.032, 19:50:22.168, 1550339422168
57, -9.13, -18.57, 363.48, -210.42, -0.224, 0.976, -0.032, 19:50:22.184, 1550339422184
58, 69.69, 72.93, 411.31, -171.92, -0.224, 0.976, -0.032, 19:50:22.184, 1550339422184
59, 85.01, 102.02, 334.12, -243.92, -0.224, 0.976, -0.032, 19:50:22.184, 1550339422184
60, 31.82, 31.81, 306.99, -236.26, -0.224, 0.976, -0.032, 19:50:22.184, 1550339422184
61, -15.67, -25.95, 343.76, -202.03, -0.224, 0.976, -0.032, 19:50:22.198, 1550339422198
62, 55.02, 59.96, 354.86, -148.82, -0.224, 0.976, -0.032, 19:50:22.198, 1550339422198
63, 83.62, 91.86, 249.52, -196.65, -0.224, 0.976, -0.032, 19:50:22.214, 1550339422214
64, 16.93, 22.36, 228.56, -191.33, -0.224, 0.976, -0.032, 19:50:22.214, 1550339422214
65, -15.18, -20.24, 283.58, -125.95, -0.224, 0.976, -0.032, 19:50:22.214, 1550339422214
66, 70.60, 76.82, 284.09, -25.70, -0.240, 0.976, -0.016, 19:50:22.214, 1550339422214
67, 92.18, 107.16, 150.64, -61.30, -0.240, 0.976, -0.016, 19:50:22.228, 1550339422228
68, -14.56, -6.38, 40.71, -97.31, -0.240, 0.976, -0.016, 19:50:22.228, 1550339422228
69, -1.93, -8.39, 137.88, 50.14, -0.240, 0.976, -0.016, 19:50:22.243, 1550339422243
70, 37.61, 43.55, 96.55, 51.76, -0.240, 0.976, -0.016, 19:50:22.243, 1550339422243
71, 74.52, 93.30, 7.52, 23.11, -0.240, 0.976, -0.016, 19:50:22.244, 1550339422244
72, 4.72, 12.02, -16.74, 13.52, -0.240, 0.976, -0.016, 19:50:22.244, 1550339422244
73, -22.76, -29.19, 41.30, 70.28, -0.240, 0.976, -0.016, 19:50:22.257, 1550339422257
74, 36.64, 44.04, 42.47, 94.82, -0.240, 0.976, -0.016, 19:50:22.257, 1550339422257
75, 73.45, 93.34, -23.13, 66.49, -0.240, 0.976, -0.016, 19:50:22.272, 1550339422272
76, -4.21, 1.47, -69.30, 39.78, -0.240, 0.976, -0.016, 19:50:22.272, 1550339422272
77, -25.01, -24.41, 9.83, 105.09, -0.240, 0.976, -0.016, 19:50:22.279, 1550339422279
78, 77.68, 83.75, 67.48, 199.31, -0.240, 0.976, -0.016, 19:50:22.279, 1550339422279
79, 52.09, 70.89, -63.08, 48.82, -0.240, 0.976, -0.016, 19:50:22.287, 1550339422287
80, 12.67, 16.26, -52.02, 62.00, -0.240, 0.976, -0.016, 19:50:22.287, 1550339422287
81, -19.73, -27.25, 15.83, 105.07, -0.240, 0.976, -0.016, 19:50:22.302, 1550339422302
82, 67.91, 73.52, 63.70, 167.90, -0.240, 0.976, -0.016, 19:50:22.302, 1550339422302
83, 66.85, 83.75, -46.29, 64.92, -0.240, 0.976, -0.016, 19:50:22.303, 1550339422303
84, 19.69, 26.75, -32.96, 81.12, -0.240, 0.976, -0.016, 19:50:22.303, 1550339422303
85, 2.05, -6.45, 48.48, 133.34, -0.240, 0.976, -0.016, 19:50:22.317, 1550339422317
86, 63.83, 68.28, 74.98, 137.58, -0.240, 0.976, -0.016, 19:50:22.317, 1550339422317
87, 72.29, 89.80, -24.72, 52.81, -0.240, 0.976, -0.016, 19:50:22.332, 1550339422332
88, 27.31, 32.56, -11.69, 69.27, -0.240, 0.976, -0.016, 19:50:22.332, 1550339422332
89, -11.02, -17.58, 47.05, 108.41, -0.240, 0.976, -0.016, 19:50:22.333, 1550339422333
90, 66.52, 76.47, 89.15, 144.84, -0.240, 0.976, -0.016, 19:50:22.333, 1550339422333
91, 88.36, 109.29, 3.40, 78.00, -0.240, 0.976, -0.016, 19:50:22.347, 1550339422347
92, 12.77, 16.44, -22.72, 42.05, -0.240, 0.976, -0.016, 19:50:22.347, 1550339422347
93, -1.06, -9.35, 60.62, 119.91, -0.240, 0.976, -0.016, 19:50:22.362, 1550339422362
94, 81.20, 85.78, 110.18, 163.05, -0.240, 0.976, -0.016, 19:50:22.362, 1550339422362
95, 104.08, 123.15, 38.62, 92.53, -0.240, 0.976, -0.016, 19:50:22.363, 1550339422363
96, 11.15, 18.10, -28.75, 36.15, -0.240, 0.976, -0.016, 19:50:22.363, 1550339422363
97, -5.58, -14.67, 55.63, 98.51, -0.240, 0.976, -0.016, 19:50:22.377, 1550339422377
98, 71.84, 79.84, 102.01, 144.54, -0.240, 0.976, -0.016, 19:50:22.377, 1550339422377
99, 101.35, 121.56, 26.43, 97.87, -0.240, 0.976, -0.016, 19:50:22.392, 1550339422392
100, 24.83, 25.18, -4.16, 51.53, -0.240, 0.976, -0.016, 19:50:22.392, 1550339422392
101, -7.37, -13.10, 64.52, 96.98, -0.240, 0.976, -0.016, 19:50:22.393, 1550339422393
102, 77.21, 82.00, 103.49, 153.37, -0.240, 0.976, -0.016, 19:50:22.393, 1550339422393
103, 90.90, 105.16, 21.67, 63.44, -0.240, 0.976, -0.016, 19:50:22.407, 1550339422407
104, 24.48, 31.42, 0.12, 45.33, -0.240, 0.976, -0.016, 19:50:22.407, 1550339422407
105, -4.46, -12.28, 77.63, 92.55, -0.240, 0.976, -0.016, 19:50:22.422, 1550339422422
106, 76.41, 85.22, 110.66, 156.58, -0.256, 0.992, -0.016, 19:50:22.422, 1550339422422
107, 90.05, 107.81, 31.63, 52.37, -0.256, 0.992, -0.016, 19:50:22.423, 1550339422423
108, 24.00, 24.72, 2.01, 35.47, -0.256, 0.992, -0.016, 19:50:22.423, 1550339422423
109, 1.53, -7.46, 84.90, 101.50, -0.256, 0.992, -0.016, 19:50:22.437, 1550339422437
110, 69.39, 77.43, 116.52, 122.11, -0.256, 0.992, -0.016, 19:50:22.437, 1550339422437
111, 81.24, 96.86, 18.58, 32.16, -0.256, 0.992, -0.016, 19:50:22.452, 1550339422452
112, 34.85, 39.60, 26.51, 53.97, -0.256, 0.992, -0.016, 19:50:22.452, 1550339422452
113, 6.76, 3.02, 100.39, 107.19, -0.256, 0.992, -0.016, 19:50:22.453, 1550339422453
114, 77.40, 79.54, 123.31, 127.48, -0.256, 0.992, -0.016, 19:50:22.453, 1550339422453
115, 89.43, 109.66, 24.89, 58.78, -0.256, 0.992, -0.016, 19:50:22.476, 1550339422476
116, 0.23, 7.36, -15.91, -3.70, -0.256, 0.992, -0.016, 19:50:22.476, 1550339422476
117, 9.81, -3.58, 103.50, 109.40, -0.256, 0.992, -0.016, 19:50:22.484, 1550339422484
118, 74.62, 79.87, 119.57, 133.01, -0.256, 0.992, -0.016, 19:50:22.484, 1550339422484
119, 74.59, 94.55, 4.22, 35.65, -0.256, 0.992, -0.016, 19:50:22.485, 1550339422485
120, 22.21, 28.42, 27.75, 24.57, -0.256, 0.992, -0.016, 19:50:22.485, 1550339422485
121, 7.83, 1.24, 98.33, 104.39, -0.256, 0.992, -0.016, 19:50:22.498, 1550339422498
122, 62.21, 69.41, 110.72, 115.89, -0.256, 0.992, -0.016, 19:50:22.498, 1550339422498
123, 79.73, 100.07, 18.94, 33.68, -0.256, 0.992, -0.016, 19:50:22.513, 1550339422513
124, 9.90, 16.63, -3.99, 13.79, -0.256, 0.992, -0.016, 19:50:22.513, 1550339422513
125, -4.99, -13.28, 75.81, 86.01, -0.256, 0.992, -0.016, 19:50:22.513, 1550339422513
126, 67.94, 74.45, 113.59, 114.42, -0.224, 0.976, 0.000, 19:50:22.513, 1550339422513
127, 89.59, 109.12, 36.48, 45.69, -0.224, 0.976, 0.000, 19:50:22.528, 1550339422528
128, 14.43, 20.04, -4.29, 19.29, -0.224, 0.976, 0.000, 19:50:22.528, 1550339422528
129, -15.86, -21.54, 68.98, 83.13, -0.224, 0.976, 0.000, 19:50:22.543, 1550339422543
130, 81.42, 87.35, 127.47, 141.27, -0.224, 0.976, 0.000, 19:50:22.543, 1550339422543
131, 95.23, 112.84, 35.31, 57.18, -0.224, 0.976, 0.000, 19:50:22.543, 1550339422543
132, 9.13, 8.07, -3.78, 0.94, -0.224, 0.976, 0.000, 19:50:22.543, 1550339422543
133, 1.02, -3.30, 95.63, 88.71, -0.224, 0.976, 0.000, 19:50:22.558, 1550339422558
134, 68.57, 73.39, 125.88, 114.02, -0.224, 0.976, 0.000, 19:50:22.558, 1550339422558
135, 91.08, 110.36, 39.13, 52.42, -0.224, 0.976, 0.000, 19:50:22.572, 1550339422572
136, 28.80, 32.34, 17.21, 31.11, -0.224, 0.976, 0.000, 19:50:22.572, 1550339422572
137, -11.16, -19.70, 82.60, 66.85, -0.224, 0.976, 0.000, 19:50:22.573, 1550339422573
138, 60.84, 67.77, 114.00, 91.71, -0.224, 0.976, 0.000, 19:50:22.573, 1550339422573
139, 119.62, 135.07, 75.05, 96.11, -0.224, 0.976, 0.000, 19:50:22.587, 1550339422587
140, 13.42, 18.22, 7.25, -0.23, -0.224, 0.976, 0.000, 19:50:22.587, 1550339422587
141, 2.45, -9.28, 89.47, 87.07, -0.224, 0.976, 0.000, 19:50:22.603, 1550339422603
142, 66.80, 70.95, 118.57, 98.98, -0.224, 0.976, 0.000, 19:50:22.603, 1550339422603
143, 101.52, 119.03, 48.13, 57.67, -0.224, 0.976, 0.000, 19:50:22.604, 1550339422604
144, 23.23, 22.09, 20.65, 22.93, -0.224, 0.976, 0.000, 19:50:22.604, 1550339422604
145, -9.27, -16.29, 88.04, 71.28, -0.224, 0.976, 0.000, 19:50:22.618, 1550339422618
146, 73.30, 75.13, 121.06, 126.61, -0.256, 0.976, 0.000, 19:50:22.618, 1550339422618
147, 89.53, 114.12, 47.95, 46.05, -0.256, 0.976, 0.000, 19:50:22.632, 1550339422632
148, 38.50, 45.73, 45.35, 48.43, -0.256, 0.976, 0.000, 19:50:22.632, 1550339422632
149, -9.18, -15.97, 90.05, 78.02, -0.256, 0.976, 0.000, 19:50:22.633, 1550339422633
150, 68.05, 74.50, 121.91, 119.63, -0.256, 0.976, 0.000, 19:50:22.634, 1550339422634
151, 93.50, 115.33, 38.43, 62.46, -0.256, 0.976, 0.000, 19:50:22.654, 1550339422654
152, 32.61, 39.37, 21.44, 54.12, -0.256, 0.976, 0.000, 19:50:22.654, 1550339422654
153, 4.79, -1.09, 105.69, 99.77, -0.256, 0.976, 0.000, 19:50:22.662, 1550339422662
154, 75.64, 81.35, 124.26, 128.65, -0.256, 0.976, 0.000, 19:50:22.662, 1550339422662
155, 113.88, 134.25, 44.79, 115.44, -0.256, 0.976, 0.000, 19:50:22.663, 1550339422663
156, 39.46, 42.76, 14.41, 77.42, -0.256, 0.976, 0.000, 19:50:22.663, 1550339422663
157, 16.51, 8.83, 65.61, 163.68, -0.256, 0.976, 0.000, 19:50:22.678, 1550339422678
158, 83.92, 91.86, 98.59, 188.29, -0.256, 0.976, 0.000, 19:50:22.678, 1550339422678
159, 103.51, 123.45, 28.31, 119.46, -0.256, 0.976, 0.000, 19:50:22.693, 1550339422693
160, 50.48, 58.11, 24.99, 108.94, -0.256, 0.976, 0.000, 19:50:22.693, 1550339422693
161, 36.48, 31.83, 89.88, 211.31, -0.256, 0.976, 0.000, 19:50:22.693, 1550339422693
162, 67.45, 95.27, 108.69, 218.25, -0.256, 0.976, 0.000, 19:50:22.693, 1550339422693
163, 103.66, 128.47, 27.26, 124.94, -0.256, 0.976, 0.000, 19:50:22.708, 1550339422708
164, 43.59, 47.82, 10.75, 92.66, -0.256, 0.976, 0.000, 19:50:22.708, 1550339422708
165, 6.87, -5.21, 66.38, 134.37, -0.256, 0.976, 0.000, 19:50:22.722, 1550339422722
166, 81.34, 77.78, 98.62, 159.06, -0.224, 0.976, -0.016, 19:50:22.722, 1550339422722
167, 85.16, 103.63, 9.35, 62.09, -0.224, 0.976, -0.016, 19:50:22.723, 1550339422723
168, 17.34, 16.80, -5.79, 21.70, -0.224, 0.976, -0.016, 19:50:22.723, 1550339422723
169, -8.92, -17.18, 69.06, 75.34, -0.224, 0.976, -0.016, 19:50:22.744, 1550339422744
170, 59.48, 63.02, 100.88, 88.46, -0.224, 0.976, -0.016, 19:50:22.744, 1550339422744
171, 80.24, 93.69, 22.78, 4.00, -0.224, 0.976, -0.016, 19:50:22.752, 1550339422752
172, 6.25, 8.93, 1.82, -29.56, -0.224, 0.976, -0.016, 19:50:22.752, 1550339422752
173, -22.13, -32.12, 72.90, 18.99, -0.224, 0.976, -0.016, 19:50:22.753, 1550339422753
174, 47.14, 49.83, 108.82, 41.97, -0.224, 0.976, -0.016, 19:50:22.753, 1550339422753
175, 67.05, 85.00, 40.08, -37.57, -0.224, 0.976, -0.016, 19:50:22.768, 1550339422768
176, 8.78, 8.98, 28.58, -45.00, -0.224, 0.976, -0.016, 19:50:22.768, 1550339422768
177, -18.86, -26.55, 94.48, 23.60, -0.224, 0.976, -0.016, 19:50:22.783, 1550339422783
178, 55.71, 61.62, 125.54, 62.30, -0.224, 0.976, -0.016, 19:50:22.783, 1550339422783
179, 70.98, 89.22, 33.35, -9.89, -0.224, 0.976, -0.016, 19:50:22.783, 1550339422783
180, 17.54, 21.77, 32.71, -7.89, -0.224, 0.976, -0.016, 19:50:22.783, 1550339422783
181, -11.43, -17.70, 90.23, 45.49, -0.224, 0.976, -0.016, 19:50:22.798, 1550339422798
182, 57.10, 64.59, 118.84, 77.97, -0.224, 0.976, -0.016, 19:50:22.798, 1550339422798
183, 84.47, 102.97, 46.50, 15.13, -0.224, 0.976, -0.016, 19:50:22.813, 1550339422813
184, 7.85, 13.19, 21.83, -14.89, -0.224, 0.976, -0.016, 19:50:22.813, 1550339422813
185, -5.03, -16.48, 102.94, 61.10, -0.224, 0.976, -0.016, 19:50:22.813, 1550339422813
186, 59.17, 65.30, 126.37, 83.66, -0.256, 0.960, 0.000, 19:50:22.813, 1550339422813
187, 89.36, 105.00, 57.00, 19.66, -0.256, 0.960, 0.000, 19:50:22.827, 1550339422827
188, 11.03, 15.53, 26.50, -16.84, -0.256, 0.960, 0.000, 19:50:22.827, 1550339422827
189, -5.10, -19.08, 110.94, 54.05, -0.256, 0.960, 0.000, 19:50:22.842, 1550339422842
190, 57.84, 67.61, 127.88, 74.74, -0.256, 0.960, 0.000, 19:50:22.842, 1550339422842
191, 83.45, 97.80, 55.76, -2.95, -0.256, 0.960, 0.000, 19:50:22.842, 1550339422842
192, 15.95, 17.33, 31.03, -21.45, -0.256, 0.960, 0.000, 19:50:22.842, 1550339422842
193, -11.85, -16.66, 107.36, 42.96, -0.256, 0.960, 0.000, 19:50:22.857, 1550339422857
194, 61.20, 66.71, 136.52, 70.10, -0.256, 0.960, 0.000, 19:50:22.857, 1550339422857
195, 82.29, 101.67, 59.64, 2.43, -0.256, 0.960, 0.000, 19:50:22.874, 1550339422874
196, 20.16, 23.37, 41.60, -18.30, -0.256, 0.960, 0.000, 19:50:22.874, 1550339422874
197, -11.76, -15.43, 112.28, 45.33, -0.256, 0.960, 0.000, 19:50:22.874, 1550339422874
198, 56.35, 64.63, 133.09, 70.11, -0.256, 0.960, 0.000, 19:50:22.874, 1550339422874
199, 78.10, 100.90, 50.98, 2.21, -0.256, 0.960, 0.000, 19:50:22.887, 1550339422887
200, 11.37, 15.26, 31.93, -22.48, -0.256, 0.960, 0.000, 19:50:22.887, 1550339422887
0, -6.26, -10.51, 114.09, 52.85, -0.256, 0.960, 0.000, 19:50:22.887, 1550339422887
1, 57.85, 67.58, 128.85, 79.86, -0.256, 0.960, 0.000, 19:50:22.902, 1550339422902
2, 83.43, 103.04, 58.68, 17.27, -0.256, 0.960, 0.000, 19:50:22.902, 1550339422902
3, 13.98, 16.91, 29.95, -14.25, -0.256, 0.960, 0.000, 19:50:22.917, 1550339422917
4, -3.17, -13.62, 109.61, 53.08, -0.256, 0.960, 0.000, 19:50:22.917, 1550339422917
5, 62.35, 67.75, 128.90, 79.62, -0.256, 0.960, 0.000, 19:50:22.918, 1550339422918
6, 86.90, 105.88, 55.46, 16.90, -0.240, 0.976, -0.032, 19:50:22.918, 1550339422918
7, 19.12, 21.38, 34.74, -10.15, -0.240, 0.976, -0.032, 19:50:22.932, 1550339422932
8, -5.74, -13.46, 108.58, 56.23, -0.240, 0.976, -0.032, 19:50:22.932, 1550339422932
9, 63.13, 65.90, 130.89, 79.61, -0.240, 0.976, -0.032, 19:50:22.947, 1550339422947
10, 87.74, 110.18, 59.36, 20.98, -0.240, 0.976, -0.032, 19:50:22.947, 1550339422947
11, 19.89, 23.92, 42.05, -3.70, -0.240, 0.976, -0.032, 19:50:22.948, 1550339422948
12, -3.41, -7.17, 118.55, 63.31, -0.240, 0.976, -0.032, 19:50:22.948, 1550339422948
13, 61.82, 69.10, 131.03, 84.94, -0.240, 0.976, -0.032, 19:50:22.962, 1550339422962
14, 87.10, 107.14, 59.39, 24.13, -0.240, 0.976, -0.032, 19:50:22.962, 1550339422962
15, 18.40, 22.44, 33.99, -0.43, -0.240, 0.976, -0.032, 19:50:22.978, 1550339422978
16, -4.74, -12.71, 116.07, 67.51, -0.240, 0.976, -0.032, 19:50:22.978, 1550339422978
17, 65.14, 67.97, 127.93, 85.66, -0.240, 0.976, -0.032, 19:50:22.978, 1550339422978
18, 89.73, 108.42, 58.53, 36.09, -0.240, 0.976, -0.032, 19:50:22.978, 1550339422978
19, 12.14, 18.95, 26.55, -3.22, -0.240, 0.976, -0.032, 19:50:22.992, 1550339422992
20, -0.07, -9.39, 105.28, 65.58, -0.240, 0.976, -0.032, 19:50:22.992, 1550339422992
21, 57.89, 64.07, 121.66, 79.16, -0.240, 0.976, -0.032, 19:50:23.007, 1550339423007
22, 93.05, 108.58, 61.33, 25.26, -0.240, 0.976, -0.032, 19:50:23.007, 1550339423007
23, 18.76, 20.35, 35.52, -6.80, -0.240, 0.976, -0.032, 19:50:23.008, 1550339423008
24, -10.85, -15.96, 101.66, 56.03, -0.240, 0.976, -0.032, 19:50:23.008, 1550339423008
25, 62.04, 68.13, 126.18, 85.64, -0.240, 0.976, -0.032, 19:50:23.022, 1550339423022
26, 91.55, 108.23, 59.03, 23.36, -0.240, 0.976, -0.016, 19:50:23.022, 1550339423022
27, 17.06, 17.32, 31.31, -5.71, -0.240, 0.976, -0.016, 19:50:23.038, 1550339423038
28, -8.13, -16.46, 104.71, 55.68, -0.240, 0.976, -0.016, 19:50:23.038, 1550339423038
29, 62.05, 69.92, 132.53, 82.87, -0.240, 0.976, -0.016, 19:50:23.038, 1550339423038
30, 85.50, 101.15, 48.25, 7.23, -0.240, 0.976, -0.016, 19:50:23.038, 1550339423038
31, 25.14, 28.63, 51.88, 1.77, -0.240, 0.976, -0.016, 19:50:23.053, 1550339423053
32, -7.04, -11.95, 111.54, 48.89, -0.240, 0.976, -0.016, 19:50:23.053, 1550339423053
33, 63.00, 66.61, 132.25, 76.74, -0.240, 0.976, -0.016, 19:50:23.067, 1550339423067
34, 85.59, 102.66, 58.21, 14.00, -0.240, 0.976, -0.016, 19:50:23.067, 1550339423067
35, 15.56, 22.54, 34.63, -7.90, -0.240, 0.976, -0.016, 19:50:23.068, 1550339423068
36, -6.35, -15.37, 113.90, 58.40, -0.240, 0.976, -0.016, 19:50:23.068, 1550339423068
37, 62.55, 63.64, 125.85, 75.47, -0.240, 0.976, -0.016, 19:50:23.083, 1550339423083
38, 86.81, 108.18, 56.11, 17.34, -0.240, 0.976, -0.016, 19:50:23.083, 1550339423083
39, 9.48, 15.71, 33.74, -13.10, -0.240, 0.976, -0.016, 19:50:23.098, 1550339423098
40, -4.69, -10.89, 114.64, 56.88, -0.240, 0.976, -0.016, 19:50:23.098, 1550339423098
41, 58.07, 64.82, 126.00, 76.80, -0.240, 0.976, -0.016, 19:50:23.099, 1550339423099
42, 85.61, 102.28, 58.85, 13.61, -0.240, 0.976, -0.016, 19:50:23.099, 1550339423099
43, 20.52, 24.49, 39.99, -6.84, -0.240, 0.976, -0.016, 19:50:23.113, 1550339423113
44, -7.71, -13.64, 105.81, 52.97, -0.240, 0.976, -0.016, 19:50:23.113, 1550339423113
45, 60.69, 66.85, 126.48, 77.06, -0.240, 0.976, -0.016, 19:50:23.128, 1550339423128
46, 84.26, 104.68, 58.31, 12.39, -0.240, 0.976, 0.000, 19:50:23.128, 1550339423128
47, 20.06, 23.03, 36.96, -5.00, -0.240, 0.976, 0.000, 19:50:23.128, 1550339423128
48, -6.26, -15.23, 109.23, 54.45, -0.240, 0.976, 0.000, 19:50:23.128, 1550339423128
49, 59.14, 67.05, 133.68, 79.69, -0.240, 0.976, 0.000, 19:50:23.143, 1550339423143
50, 84.23, 103.25, 58.72, 8.78, -0.240, 0.976, 0.000, 19:50:23.143, 1550339423143
51, 15.63, 21.55, 32.56, -14.58, -0.240, 0.976, 0.000, 19:50:23.158, 1550339423158
52, -6.98, -15.03, 108.03, 55.27, -0.240, 0.976, 0.000, 19:50:23.158, 1550339423158
53, 64.70, 69.75, 140.61, 84.21, -0.240, 0.976, 0.000, 19:50:23.158, 1550339423158
54, 90.02, 107.10, 60.67, 19.92, -0.240, 0.976, 0.000, 19:50:23.158, 1550339423158
55, 18.94, 23.31, 39.80, -2.97, -0.240, 0.976, 0.000, 19:50:23.188, 1550339423188
56, -6.97, -18.03, 110.29, 56.20, -0.240, 0.976, 0.000, 19:50:23.188, 1550339423188
57, 67.56, 70.43, 132.88, 86.57, -0.240, 0.976, 0.000, 19:50:23.188, 1550339423188
58, 84.18, 104.20, 56.42, 15.88, -0.240, 0.976, 0.000, 19:50:23.188, 1550339423188
59, 11.51, 11.93, 28.32, -22.68, -0.240, 0.976, 0.000, 19:50:23.189, 1550339423189
60, 0.80, -9.81, 114.79, 61.03, -0.240, 0.976, 0.000, 19:50:23.189, 1550339423189
61, 59.77, 67.92, 130.39, 76.92, -0.240, 0.976, 0.000, 19:50:23.202, 1550339423202
62, 86.01, 105.25, 59.84, 11.85, -0.240, 0.976, 0.000, 19:50:23.202, 1550339423202
63, 12.76, 19.52, 36.94, -11.83, -0.240, 0.976, 0.000, 19:50:23.217, 1550339423217
64, -6.28, -11.44, 111.46, 53.80, -0.240, 0.976, 0.000, 19:50:23.217, 1550339423217
65, 60.89, 68.62, 130.95, 77.99, -0.240, 0.976, 0.000, 19:50:23.218, 1550339423218
66, 87.19, 105.24, 60.34, 17.21, -0.240, 0.960, -0.016, 19:50:23.218, 1550339423218
67, 16.88, 23.94, 42.02, -5.04, -0.240, 0.960, -0.016, 19:50:23.232, 1550339423232
68, -4.89, -9.77, 110.00, 59.52, -0.240, 0.960, -0.016, 19:50:23.232, 1550339423232
69, 64.25, 69.49, 133.29, 84.21, -0.240, 0.960, -0.016, 19:50:23.248, 1550339423248
70, 89.76, 107.91, 55.57, 18.64, -0.240, 0.960, -0.016, 19:50:23.248, 1550339423248
71, 16.10, 18.22, 37.53, -5.40, -0.240, 0.960, -0.016, 19:50:23.248, 1550339423248
72, -4.62, -12.35, 110.07, 62.11, -0.240, 0.960, -0.016, 19:50:23.248, 1550339423248
73, 66.73, 71.67, 131.38, 81.79, -0.240, 0.960, -0.016, 19:50:23.263, 1550339423263
74, 83.70, 101.68, 58.60, 19.02, -0.240, 0.960, -0.016, 19:50:23.263, 1550339423263
75, 15.36, 16.98, 36.44, -7.86, -0.240, 0.960, -0.016, 19:50:23.278, 1550339423278
76, -5.64, -12.74, 109.69, 57.88, -0.240, 0.960, -0.016, 19:50:23.278, 1550339423278
77, 61.73, 70.99, 128.22, 76.87, -0.240, 0.960, -0.016, 19:50:23.285, 1550339423285
78, 87.23, 105.64, 51.86, 15.08, -0.240, 0.960, -0.016, 19:50:23.285, 1550339423285
79, 15.82, 21.41, 35.27, -11.32, -0.240, 0.960, -0.016, 19:50:23.293, 1550339423293
80, -4.93, -9.30, 105.19, 54.05, -0.240, 0.960, -0.016, 19:50:23.293, 1550339423293
81, 66.42, 70.26, 134.81, 79.55, -0.240, 0.960, -0.016, 19:50:23.308, 1550339423308
82, 88.81, 109.78, 62.71, 22.08, -0.240, 0.960, -0.016, 19:50:23.308, 1550339423308
83, 21.23, 20.62, 43.12, -3.47, -0.240, 0.960, -0.016, 19:50:23.308, 1550339423308
84, -4.09, -8.51, 115.88, 58.90, -0.240, 0.960, -0.016, 19:50:23.308, 1550339423308
85, 64.50, 76.42, 140.36, 89.23, -0.240, 0.960, -0.016, 19:50:23.323, 1550339423323
86, 85.12, 102.31, 55.89, 15.47, -0.256, 0.976, -0.016, 19:50:23.323, 1550339423323
87, 17.33, 21.91, 37.51, -8.42, -0.256, 0.976, -0.016, 19:50:23.338, 1550339423338
88, -7.44, -16.62, 112.46, 58.91, -0.256, 0.976, -0.016, 19:50:23.338, 1550339423338
89, 67.98, 74.53, 139.50, 88.44, -0.256, 0.976, -0.016, 19:50:23.338, 1550339423338
90, 95.28, 113.92, 64.80, 23.34, -0.256, 0.976, -0.016, 19:50:23.338, 1550339423338
91, 15.88, 18.25, 35.98, -8.27, -0.256, 0.976, -0.016, 19:50:23.353, 1550339423353
92, -3.21, -12.90, 114.01, 59.17, -0.256, 0.976, -0.016, 19:50:23.353, 1550339423353
93, 63.39, 70.51, 127.31, 76.08, -0.256, 0.976, -0.016, 19:50:23.367, 1550339423367
94, 90.21, 112.87, 61.83, 24.32, -0.256, 0.976, -0.016, 19:50:23.367, 1550339423367
95, 18.11, 19.64, 41.64, -0.00, -0.256, 0.976, -0.016, 19:50:23.367, 1550339423367
96, -15.55, -20.82, 96.99, 53.12, -0.256, 0.976, -0.016, 19:50:23.367, 1550339423367
97, 64.00, 66.94, 122.69, 84.31, -0.256, 0.976, -0.016, 19:50:23.383, 1550339423383
98, 77.31, 94.50, 43.66, 7.29, -0.256, 0.976, -0.016, 19:50:23.383, 1550339423383
99, 5.68, 7.63, 11.82, -19.58, -0.256, 0.976, -0.016, 19:50:23.397, 1550339423397
100, -14.50, -17.91, 97.11, 52.74, -0.256, 0.976, -0.016, 19:50:23.397, 1550339423397
101, 43.29, 52.18, 105.53, 48.14, -0.256, 0.976, -0.016, 19:50:23.398, 1550339423398
102, 104.36, 121.59, 75.86, 41.34, -0.256, 0.976, -0.016, 19:50:23.398, 1550339423398
103, 21.21, 21.19, 30.82, -2.64, -0.256, 0.976, -0.016, 19:50:23.412, 1550339423412
104, 8.20, -1.85, 120.83, 75.03, -0.256, 0.976, -0.016, 19:50:23.412, 1550339423412
105, 81.03, 85.23, 148.99, 108.84, -0.256, 0.976, -0.016, 19:50:23.427, 1550339423427
106, 83.56, 106.22, 50.21, 10.15, -0.256, 0.960, -0.032, 19:50:23.427, 1550339423427
107, 47.56, 44.76, 74.20, 31.64, -0.256, 0.960, -0.032, 19:50:23.428, 1550339423428
108, -37.18, -44.58, 63.90, 12.92, -0.256, 0.960, -0.032, 19:50:23.428, 1550339423428
109, 75.14, 81.27, 165.44, 77.98, -0.256, 0.960, -0.032, 19:50:23.442, 1550339423442
110, 84.63, 101.07, 74.14, -24.30, -0.256, 0.960, -0.032, 19:50:23.442, 1550339423442
111, -25.85, -24.53, 37.98, -133.30, -0.256, 0.960, -0.032, 19:50:23.458, 1550339423458
112, -25.74, -33.08, 160.00, -58.41, -0.256, 0.960, -0.032, 19:50:23.458, 1550339423458
113, 31.49, 33.94, 185.00, -79.26, -0.256, 0.960, -0.032, 19:50:23.458, 1550339423458
114, 85.10, 102.60, 172.92, -106.65, -0.256, 0.960, -0.032, 19:50:23.458, 1550339423458
115, -16.32, -18.12, 138.64, -217.81, -0.256, 0.960, -0.032, 19:50:23.472, 1550339423472
116, -36.89, -45.17, 226.55, -149.20, -0.256, 0.960, -0.032, 19:50:23.472, 1550339423472
117, 66.87, 71.82, 294.13, -75.10, -0.256, 0.960, -0.032, 19:50:23.487, 1550339423487
118, 40.57, 59.60, 156.83, -209.15, -0.256, 0.960, -0.032, 19:50:23.487, 1550339423487
119, -0.44, 6.23, 170.45, -185.96, -0.256, 0.960, -0.032, 19:50:23.488, 1550339423488
120, -14.53, -17.88, 243.65, -98.24, -0.256, 0.960, -0.032, 19:50:23.488, 1550339423488
121, 50.83, 57.25, 253.91, -71.65, -0.256, 0.960, -0.032, 19:50:23.502, 1550339423502
122, 80.47, 98.25, 169.85, -111.38, -0.256, 0.960, -0.032, 19:50:23.502, 1550339423502
123, 3.31, 4.20, 129.50, -132.96, -0.256, 0.960, -0.032, 19:50:23.517, 1550339423517
124, -21.75, -25.52, 183.98, -47.15, -0.256, 0.960, -0.032, 19:50:23.517, 1550339423517
125, 74.68, 85.62, 227.18, 38.37, -0.256, 0.960, -0.032, 19:50:23.518, 1550339423518
126, 60.42, 82.43, 96.43, -88.48, -0.240, 0.960, -0.016, 19:50:23.518, 1550339423518
127, -3.42, 1.72, 72.95, -93.27, -0.240, 0.960, -0.016, 19:50:23.532, 1550339423532
128, 3.79, -2.52, 181.56, 27.35, -0.240, 0.960, -0.016, 19:50:23.532, 1550339423532
129, 45.48, 52.78, 144.29, 13.69, -0.240, 0.960, -0.016, 19:50:23.547, 1550339423547
130, 83.46, 101.09, 78.91, -13.59, -0.240, 0.960, -0.016, 19:50:23.547, 1550339423547
131, 2.35, 8.98, 31.73, -23.45, -0.240, 0.960, -0.016, 19:50:23.548, 1550339423548
132, 17.28, 11.60, 147.19, 91.08, -0.240, 0.960, -0.016, 19:50:23.548, 1550339423548
133, 42.43, 46.62, 90.95, 56.77, -0.240, 0.960, -0.016, 19:50:23.563, 1550339423563
134, 95.41, 110.69, 49.85, 50.36, -0.240, 0.960, -0.016, 19:50:23.563, 1550339423563
135, 3.10, 12.39, 0.68, -0.02, -0.240, 0.960, -0.016, 19:50:23.579, 1550339423579
136, -15.17, -26.36, 73.05, 66.32, -0.240, 0.960, -0.016, 19:50:23.579, 1550339423579
137, 78.96, 82.24, 119.48, 136.92, -0.240, 0.960, -0.016, 19:50:23.580, 1550339423580
138, 92.13, 107.42, 31.41, 61.62, -0.240, 0.960, -0.016, 19:50:23.580, 1550339423580
139, 18.62, 22.49, 14.17, 32.22, -0.240, 0.960, -0.016, 19:50:23.593, 1550339423593
140, -1.43, -7.50, 66.78, 115.00, -0.240, 0.960, -0.016, 19:50:23.593, 1550339423593
141, 73.21, 80.29, 105.19, 144.07, -0.240, 0.960, -0.016, 19:50:23.609, 1550339423609
142, 61.70, 78.17, -19.21, 26.73, -0.240, 0.960, -0.016, 19:50:23.609, 1550339423609
143, 30.52, 38.12, 11.32, 70.79, -0.240, 0.960, -0.016, 19:50:23.611, 1550339423611
144, 9.19, 4.27, 84.76, 130.98, -0.240, 0.960, -0.016, 19:50:23.611, 1550339423611
145, 66.43, 79.76, 83.90, 142.91, -0.240, 0.960, -0.016, 19:50:23.623, 1550339423623
146, 98.55, 116.05, 15.17, 95.54, -0.256, 0.992, 0.000, 19:50:23.623, 1550339423623
147, 25.00, 29.07, 3.26, 50.20, -0.256, 0.992, 0.000, 19:50:23.638, 1550339423638
148, -0.26, -5.73, 80.49, 106.43, -0.256, 0.992, 0.000, 19:50:23.638, 1550339423638
149, 78.80, 88.32, 111.25, 151.61, -0.256, 0.992, 0.000, 19:50:23.638, 1550339423638
150, 82.87, 99.57, 3.19, 58.70, -0.256, 0.992, 0.000, 19:50:23.638, 1550339423638
151, 31.13, 33.82, 18.45, 62.26, -0.256, 0.992, 0.000, 19:50:23.653, 1550339423653
152, -1.13, -11.27, 71.40, 103.68, -0.256, 0.992, 0.000, 19:50:23.653, 1550339423653
153, 86.87, 91.54, 119.57, 159.15, -0.256, 0.992, 0.000, 19:50:23.668, 1550339423668
154, 75.84, 95.06, -0.13, 44.69, -0.256, 0.992, 0.000, 19:50:23.668, 1550339423668
155, 23.98, 33.34, 6.80, 48.24, -0.256, 0.992, 0.000, 19:50:23.669, 1550339423669
156, 11.82, 3.70, 93.89, 124.96, -0.256, 0.992, 0.000, 19:50:23.669, 1550339423669
157, 62.23, 68.70, 83.93, 117.83, -0.256, 0.992, 0.000, 19:50:23.683, 1550339423683
158, 109.90, 127.48, 36.51, 111.39, -0.256, 0.992, 0.000, 19:50:23.683, 1550339423683
159, 21.72, 27.25, 4.80, 40.48, -0.256, 0.992, 0.000, 19:50:23.698, 1550339423698
160, -22.03, -30.05, 44.30, 84.01, -0.256, 0.992, 0.000, 19:50:23.698, 1550339423698
161, 88.12, 94.33, 134.04, 160.36, -0.256, 0.992, 0.000, 19:50:23.698, 1550339423698
162, 92.83, 107.02, 22.79, 69.46, -0.256, 0.992, 0.000, 19:50:23.698, 1550339423698
163, 2.57, 7.15, -13.43, 6.90, -0.256, 0.992, 0.000, 19:50:23.713, 1550339423713
164, 22.07, 14.48, 109.92, 140.11, -0.256, 0.992, 0.000, 19:50:23.713, 1550339423713
165, 51.59, 58.47, 81.82, 90.59, -0.256, 0.992, 0.000, 19:50:23.728, 1550339423728
166, 103.59, 121.59, 49.66, 79.71, -0.240, 0.992, 0.000, 19:50:23.728, 1550339423728
167, 29.72, 35.44, 30.88, 37.26, -0.240, 0.992, 0.000, 19:50:23.728, 1550339423728
168, 4.81, -3.35, 94.86, 99.05, -0.240, 0.992, 0.000, 19:50:23.728, 1550339423728
169, 70.79, 79.16, 121.94, 112.42, -0.240, 0.992, 0.000, 19:50:23.743, 1550339423743
170, 84.98, 105.96, 32.28, 30.20, -0.240, 0.992, 0.000, 19:50:23.743, 1550339423743
171, 18.08, 24.46, 22.70, 18.64, -0.240, 0.992, 0.000, 19:50:23.758, 1550339423758
172, -1.74, -8.35, 103.77, 72.63, -0.240, 0.992, 0.000, 19:50:23.758, 1550339423758
173, 39.45, 42.20, 86.03, 49.32, -0.240, 0.992, 0.000, 19:50:23.765, 1550339423765
174, 125.29, 142.27, 111.14, 83.28, -0.240, 0.992, 0.000, 19:50:23.765, 1550339423765
175, 30.83, 34.05, 60.27, 16.13, -0.240, 0.992, 0.000, 19:50:23.772, 1550339423772
176, -16.93, -26.87, 91.11, 36.52, -0.240, 0.992, 0.000, 19:50:23.772, 1550339423772
177, 69.50, 75.54, 132.68, 87.30, -0.240, 0.992, 0.000, 19:50:23.787, 1550339423787
178, 87.24, 102.42, 53.35, 20.12, -0.240, 0.992, 0.000, 19:50:23.787, 1550339423787
179, 44.96, 44.24, 65.24, 43.35, -0.240, 0.992, 0.000, 19:50:23.788, 1550339423788
180, 3.57, -7.57, 115.24, 65.24, -0.240, 0.992, 0.000, 19:50:23.788, 1550339423788
181, 54.50, 60.73, 126.98, 63.75, -0.240, 0.992, 0.000, 19:50:23.802, 1550339423802
182, 86.43, 105.81, 51.49, 22.43, -0.240, 0.992, 0.000, 19:50:23.802, 1550339423802
183, 18.12, 22.47, 37.54, -4.02, -0.240, 0.992, 0.000, 19:50:23.817, 1550339423817
184, 13.04, 9.06, 139.62, 82.32, -0.240, 0.992, 0.000, 19:50:23.817, 1550339423817
185, 69.20, 73.92, 137.82, 93.53, -0.240, 0.992, 0.000, 19:50:23.818, 1550339423818
186, 80.19, 97.50, 50.17, 0.02, -0.240, 0.992, 0.000, 19:50:23.818, 1550339423818
187, 15.84, 21.08, 41.59, -5.22, -0.240, 0.992, 0.000, 19:50:23.832, 1550339423832
188, 8.75, 1.87, 132.22, 77.38, -0.240, 0.992, 0.000, 19:50:23.832, 1550339423832
189, 89.46, 98.32, 170.69, 127.89, -0.240, 0.992, 0.000, 19:50:23.847, 1550339423847
190, 81.48, 96.79, 53.08, -10.71, -0.240, 0.992, 0.000, 19:50:23.847, 1550339423847
191, 25.23, 26.85, 41.60, 7.73, -0.240, 0.992, 0.000, 19:50:23.848, 1550339423848
192, 9.07, 2.56, 142.29, 75.43, -0.240, 0.992, 0.000, 19:50:23.848, 1550339423848
193, 47.06, 53.80, 111.41, 49.73, -0.240, 0.992, 0.000, 19:50:23.862, 1550339423862
194, 89.40, 109.19, 68.18, 23.07, -0.240, 0.992, 0.000, 19:50:23.862, 1550339423862
195, 29.34, 34.83, 72.02, 4.87, -0.240, 0.992, 0.000, 19:50:23.878, 1550339423878
196, 9.76, 5.41, 150.27, 67.85, -0.240, 0.992, 0.000, 19:50:23.878, 1550339423878
197, 67.65, 75.99, 134.55, 79.88, -0.240, 0.992, 0.000, 19:50:23.879, 1550339423879
198, 65.34, 78.58, 44.94, -37.28, -0.240, 0.992, 0.000, 19:50:23.879, 1550339423879
199, 23.05, 31.18, 65.72, -1.33, -0.240, 0.992, 0.000, 19:50:23.892, 1550339423892
200, 3.92, -4.66, 121.62, 77.21, -0.240, 0.992, 0.000, 19:50:23.892, 1550339423892
0, 67.07, 72.38, 148.23, 67.58, -0.240, 0.992, 0.000, 19:50:23.893, 1550339423893
1, 73.77, 92.08, 53.44, -20.35, -0.240, 0.992, 0.000, 19:50:23.907, 1550339423907
2, 23.12, 27.80, 62.94, -5.47, -0.240, 0.992, 0.000, 19:50:23.907, 1550339423907
3, -18.56, -26.43, 109.00, 15.00, -0.240, 0.992, 0.000, 19:50:23.923, 1550339423923
4, 76.30, 86.99, 171.31, 85.61, -0.240, 0.992, 0.000, 19:50:23.923, 1550339423923
5, 94.12, 110.58, 92.44, 3.51, -0.240, 0.992, 0.000, 19:50:23.923, 1550339423923
6, 21.85, 24.14, 61.43, -6.74, -0.272, 0.976, 0.000, 19:50:23.923, 1550339423923
7, -5.46, -11.26, 138.42, 40.75, -0.272, 0.976, 0.000, 19:50:23.939, 1550339423939
8, 73.56, 79.47, 154.50, 79.72, -0.272, 0.976, 0.000, 19:50:23.939, 1550339423939
9, 75.94, 91.20, 65.68, -27.53, -0.272, 0.976, 0.000, 19:50:23.952, 1550339423952
10, 28.74, 34.67, 67.85, 6.14, -0.272, 0.976, 0.000, 19:50:23.952, 1550339423952
11, -19.51, -26.78, 111.11, 16.12, -0.272, 0.976, 0.000, 19:50:23.953, 1550339423953
12, 72.42, 73.68, 150.94, 72.33, -0.272, 0.976, 0.000, 19:50:23.953, 1550339423953
13, 84.74, 100.93, 70.92, -13.54, -0.272, 0.976, 0.000, 19:50:23.967, 1550339423967
14, 46.88, 49.47, 98.11, 29.23, -0.272, 0.976, 0.000, 19:50:23.967, 1550339423967
15, -21.07, -28.66, 107.59, 16.18, -0.272, 0.976, 0.000, 19:50:23.983, 1550339423983
16, 92.68, 98.55, 194.59, 97.30, -0.272, 0.976, 0.000, 19:50:23.983, 1550339423983
17, 77.50, 98.42, 66.53, -10.84, -0.272, 0.976, 0.000, 19:50:23.983, 1550339423983
18, 11.85, 16.71, 38.25, -34.73, -0.272, 0.976, 0.000, 19:50:23.983, 1550339423983
19, -18.16, -24.28, 123.04, 13.85, -0.272, 0.976, 0.000, 19:50:23.997, 1550339423997
20, 63.92, 66.01, 141.46, 62.17, -0.272, 0.976, 0.000, 19:50:23.997, 1550339423997
21, 90.27, 105.48, 75.45, 11.64, -0.272, 0.976, 0.000, 19:50:24.012, 1550339424012
22, 18.64, 25.70, 60.27, -6.06, -0.272, 0.976, 0.000, 19:50:24.012, 1550339424012
23, -0.65, -10.12, 119.07, 52.78, -0.272, 0.976, 0.000, 19:50:24.013, 1550339424013
24, 50.92, 55.40, 126.98, 42.94, -0.272, 0.976, 0.000, 19:50:24.013, 1550339424013
25, 91.63, 110.90, 70.82, 12.67, -0.272, 0.976, 0.000, 19:50:24.027, 1550339424027
26, 31.43, 36.43, 71.28, 10.20, -0.208, 0.976, 0.016, 19:50:24.027, 1550339424027
27, -10.01, -16.45, 110.43, 55.37, -0.208, 0.976, 0.016, 19:50:24.042, 1550339424042
28, 61.81, 68.99, 134.89, 58.72, -0.208, 0.976, 0.016, 19:50:24.042, 1550339424042
29, 83.52, 99.17, 55.40, -7.49, -0.208, 0.976, 0.016, 19:50:24.049, 1550339424049
30, 4.16, 10.45, 26.96, -13.31, -0.208, 0.976, 0.016, 19:50:24.049, 1550339424049
31, 1.64, -3.77, 128.69, 65.59, -0.208, 0.976, 0.016, 19:50:24.057, 1550339424057
32, 82.15, 91.14, 167.42, 92.09, -0.208, 0.976, 0.016, 19:50:24.057, 1550339424057
33, 73.18, 91.04, 32.27, -1.37, -0.208, 0.976, 0.016, 19:50:24.072, 1550339424072
34, 12.44, 14.87, 43.03, -18.77, -0.208, 0.976, 0.016, 19:50:24.072, 1550339424072
35, -3.88, -9.57, 112.20, 65.47, -0.208, 0.976, 0.016, 19:50:24.073, 1550339424073
36, 61.18, 65.90, 130.96, 71.56, -0.208, 0.976, 0.016, 19:50:24.073, 1550339424073
37, 105.21, 123.53, 96.69, 35.83, -0.208, 0.976, 0.016, 19:50:24.087, 1550339424087
38, 18.16, 22.80, 43.12, 0.93, -0.208, 0.976, 0.016, 19:50:24.087, 1550339424087
39, 5.90, -4.06, 134.29, 61.07, -0.208, 0.976, 0.016, 19:50:24.102, 1550339424102
40, 69.62, 73.68, 147.18, 84.08, -0.208, 0.976, 0.016, 19:50:24.102, 1550339424102
41, 100.56, 121.56, 71.17, 45.80, -0.208, 0.976, 0.016, 19:50:24.103, 1550339424103
42, -5.91, -0.06, 18.27, -51.70, -0.208, 0.976, 0.016, 19:50:24.103, 1550339424103
43, -12.55, -15.80, 115.54, 43.15, -0.208, 0.976, 0.016, 19:50:24.117, 1550339424117
44, 51.14, 57.65, 113.91, 60.50, -0.208, 0.976, 0.016, 19:50:24.117, 1550339424117
45, 97.06, 108.94, 68.50, 24.74, -0.208, 0.976, 0.016, 19:50:24.132, 1550339424132
46, 6.86, 10.74, 30.46, -24.28, -0.240, 0.976, -0.016, 19:50:24.132, 1550339424132
47, -19.30, -26.76, 104.56, 27.19, -0.240, 0.976, -0.016, 19:50:24.133, 1550339424133
48, 60.66, 71.59, 131.64, 67.32, -0.240, 0.976, -0.016, 19:50:24.133, 1550339424133
49, 91.75, 112.52, 66.29, 20.77, -0.240, 0.976, -0.016, 19:50:24.147, 1550339424147
50, 42.17, 42.27, 72.60, 47.24, -0.240, 0.976, -0.016, 19:50:24.147, 1550339424147
51, 6.22, -1.79, 122.64, 81.59, -0.240, 0.976, -0.016, 19:50:24.162, 1550339424162
52, 64.89, 73.20, 115.36, 88.95, -0.240, 0.976, -0.016, 19:50:24.162, 1550339424162
53, 96.36, 115.16, 63.64, 39.90, -0.240, 0.976, -0.016, 19:50:24.163, 1550339424163
54, 34.93, 39.33, 56.71, 31.57, -0.240, 0.976, -0.016, 19:50:24.163, 1550339424163
55, 14.42, 11.51, 126.10, 105.06, -0.240, 0.976, -0.016, 19:50:24.177, 1550339424177
56, 69.09, 76.90, 117.73, 110.07, -0.240, 0.976, -0.016, 19:50:24.177, 1550339424177
57, 92.53, 108.43, 41.77, 44.27, -0.240, 0.976, -0.016, 19:50:24.192, 1550339424192
58, 34.67, 39.14, 47.09, 56.60, -0.240, 0.976, -0.016, 19:50:24.192, 1550339424192
59, 6.50, -1.22, 104.19, 93.71, -0.240, 0.976, -0.016, 19:50:24.193, 1550339424193
60, 83.58, 87.28, 136.12, 129.63, -0.240, 0.976, -0.016, 19:50:24.193, 1550339424193
61, 110.63, 126.89, 47.13, 95.66, -0.240, 0.976, -0.016, 19:50:24.207, 1550339424207
62, 60.09, 62.37, 50.24, 117.09, -0.240, 0.976, -0.016, 19:50:24.207, 1550339424207
63, 23.04, 22.72, 98.10, 165.15, -0.240, 0.976, -0.016, 19:50:24.222, 1550339424222
64, 102.23, 106.45, 124.93, 200.13, -0.240, 0.976, -0.016, 19:50:24.222, 1550339424222
65, 104.66, 123.65, 18.65, 115.31, -0.240, 0.976, -0.016, 19:50:24.223, 1550339424223
66, 39.75, 47.24, 1.27, 116.18, -0.256, 0.960, 0.000, 19:50:24.223, 1550339424223
67, 28.94, 22.19, 94.79, 193.98, -0.256, 0.960, 0.000, 19:50:24.237, 1550339424237
68, 103.33, 114.45, 132.17, 204.56, -0.256, 0.960, 0.000, 19:50:24.237, 1550339424237
69, 112.33, 129.72, 29.07, 126.60, -0.256, 0.960, 0.000, 19:50:24.252, 1550339424252
70, 37.44, 37.17, 5.90, 106.22, -0.256, 0.960, 0.000, 19:50:24.252, 1550339424252
71, 12.06, 5.73, 87.64, 135.03, -0.256, 0.960, 0.000, 19:50:24.253, 1550339424253
72, 80.75, 85.95, 110.24, 149.09, -0.256, 0.960, 0.000, 19:50:24.253, 1550339424253
73, 89.54, 115.55, 45.37, 63.74, -0.256, 0.960, 0.000, 19:50:24.268, 1550339424268
74, 21.38, 31.91, 40.74, 48.42, -0.256, 0.960, 0.000, 19:50:24.268, 1550339424268
75, 5.56, -0.81, 111.88, 85.63, -0.256, 0.960, 0.000, 19:50:24.282, 1550339424282
76, 77.47, 81.33, 141.64, 84.62, -0.256, 0.960, 0.000, 19:50:24.282, 1550339424282
77, 93.42, 114.48, 65.15, 20.16, -0.256, 0.960, 0.000, 19:50:24.283, 1550339424283
78, 18.89, 18.19, 38.48, -1.21, -0.256, 0.960, 0.000, 19:50:24.283, 1550339424283
79, 5.01, -5.76, 106.31, 70.70, -0.256, 0.960, 0.000, 19:50:24.298, 1550339424298
80, 67.27, 74.10, 121.72, 86.03, -0.256, 0.960, 0.000, 19:50:24.298, 1550339424298
81, 92.41, 109.77, 56.05, 16.22, -0.256, 0.960, 0.000, 19:50:24.312, 1550339424312
82, 12.46, 11.73, 34.93, -17.90, -0.256, 0.960, 0.000, 19:50:24.312, 1550339424312
83, -7.40, -19.52, 106.46, 35.23, -0.256, 0.960, 0.000, 19:50:24.313, 1550339424313
84, 60.68, 67.12, 123.52, 60.69, -0.256, 0.960, 0.000, 19:50:24.313, 1550339424313
85, 80.61, 97.88, 49.09, -3.39, -0.256, 0.960, 0.000, 19:50:24.327, 1550339424327
86, 0.33, 3.20, 23.15, -42.74, -0.256, 0.992, 0.000, 19:50:24.327, 1550339424327
87, -4.47, -13.79, 125.69, 41.48, -0.256, 0.992, 0.000, 19:50:24.342, 1550339424342
88, 65.10, 67.95, 137.66, 52.51, -0.256, 0.992, 0.000, 19:50:24.342, 1550339424342
89, 83.61, 98.05, 58.94, -12.41, -0.256, 0.992, 0.000, 19:50:24.343, 1550339424343
90, -1.49, 1.94, 36.89, -37.64, -0.256, 0.992, 0.000, 19:50:24.343, 1550339424343
91, -4.57, -10.78, 125.78, 38.75, -0.256, 0.992, 0.000, 19:50:24.364, 1550339424364
92, 55.47, 62.33, 131.38, 38.78, -0.256, 0.992, 0.000, 19:50:24.364, 1550339424364
93, 83.38, 104.61, 68.61, -8.93, -0.256, 0.992, 0.000, 19:50:24.372, 1550339424372
94, 1.43, 7.75, 43.87, -39.33, -0.256, 0.992, 0.000, 19:50:24.372, 1550339424372
95, -8.64, -15.51, 124.90, 39.59, -0.256, 0.992, 0.000, 19:50:24.373, 1550339424373
96, 61.51, 70.57, 136.87, 65.03, -0.256, 0.992, 0.000, 19:50:24.373, 1550339424373
97, 85.69, 102.71, 64.75, 4.29, -0.256, 0.992, 0.000, 19:50:24.388, 1550339424388
98, 2.45, 8.10, 31.44, -32.21, -0.256, 0.992, 0.000, 19:50:24.388, 1550339424388
99, -0.13, -9.84, 121.43, 55.56, -0.256, 0.992, 0.000, 19:50:24.403, 1550339424403
100, 59.93, 67.57, 130.02, 68.46, -0.256, 0.992, 0.000, 19:50:24.403, 1550339424403
101, 76.62, 96.00, 44.56, -3.23, -0.256, 0.992, 0.000, 19:50:24.404, 1550339424404
102, 9.78, 17.32, 34.55, -9.37, -0.256, 0.992, 0.000, 19:50:24.404, 1550339424404
103, -6.59, -8.97, 107.73, 53.79, -0.256, 0.992, 0.000, 19:50:24.418, 1550339424418
104, 66.34, 74.63, 130.05, 86.19, -0.256, 0.992, 0.000, 19:50:24.418, 1550339424418
105, 83.80, 100.64, 51.65, 18.62, -0.256, 0.992, 0.000, 19:50:24.432, 1550339424432
106, 21.09, 21.07, 39.47, 4.71, -0.240, 0.992, 0.000, 19:50:24.432, 1550339424432
107, -4.87, -11.43, 105.91, 60.39, -0.240, 0.992, 0.000, 19:50:24.448, 1550339424448
108, 65.00, 73.49, 126.67, 92.04, -0.240, 0.992, 0.000, 19:50:24.448, 1550339424448
109, 83.61, 102.31, 38.55, 16.21, -0.240, 0.992, 0.000, 19:50:24.448, 1550339424448
110, 11.14, 14.85, 29.29, 5.27, -0.240, 0.992, 0.000, 19:50:24.448, 1550339424448
111, -6.67, -13.52, 95.45, 70.40, -0.240, 0.992, 0.000, 19:50:24.463, 1550339424463
112, 63.36, 67.36, 112.66, 89.44, -0.240, 0.992, 0.000, 19:50:24.463, 1550339424463
113, 95.51, 113.75, 47.40, 43.64, -0.240, 0.992, 0.000, 19:50:24.464, 1550339424464
114, 19.08, 24.09, 27.80, 21.20, -0.240, 0.992, 0.000, 19:50:24.464, 1550339424464
115, -0.70, -13.59, 93.86, 76.69, -0.240, 0.992, 0.000, 19:50:24.478, 1550339424478
116, 58.62, 64.02, 102.13, 89.06, -0.240, 0.992, 0.000, 19:50:24.478, 1550339424478
117, 85.48, 105.66, 36.35, 31.63, -0.240, 0.992, 0.000, 19:50:24.493, 1550339424493
118, 16.32, 15.03, 22.70, 16.51, -0.240, 0.992, 0.000, 19:50:24.493, 1550339424493
119, -3.49, -11.45, 95.75, 75.60, -0.240, 0.992, 0.000, 19:50:24.493, 1550339424493
120, 64.35, 67.62, 107.60, 95.83, -0.240, 0.992, 0.000, 19:50:24.493, 1550339424493
121, 77.72, 99.60, 31.96, 19.74, -0.240, 0.992, 0.000, 19:50:24.507, 1550339424507
122, 9.43, 12.39, 21.88, 5.05, -0.240, 0.992, 0.000, 19:50:24.507, 1550339424507
123, -6.48, -13.70, 90.80, 75.73, -0.240, 0.992, 0.000, 19:50:24.522, 1550339424522
124, 60.99, 68.26, 106.53, 86.79, -0.240, 0.992, 0.000, 19:50:24.522, 1550339424522
125, 80.04, 97.85, 32.25, 22.64, -0.240, 0.992, 0.000, 19:50:24.523, 1550339424523
126, 7.65, 8.82, 15.01, 1.33, -0.240, 0.976, -0.016, 19:50:24.523, 1550339424523
127, -6.75, -15.00, 96.62, 70.96, -0.240, 0.976, -0.016, 19:50:24.538, 1550339424538
128, 54.77, 60.10, 103.66, 78.78, -0.240, 0.976, -0.016, 19:50:24.538, 1550339424538
129, 86.43, 107.62, 50.47, 30.89, -0.240, 0.976, -0.016, 19:50:24.552, 1550339424552
130, 19.20, 23.28, 36.08, 8.02, -0.240, 0.976, -0.016, 19:50:24.552, 1550339424552
131, -1.63, -10.33, 107.78, 72.55, -0.240, 0.976, -0.016, 19:50:24.553, 1550339424553
132, 66.65, 76.83, 125.73, 89.86, -0.240, 0.976, -0.016, 19:50:24.553, 1550339424553
133, 83.23, 99.88, 44.34, 15.37, -0.240, 0.976, -0.016, 19:50:24.568, 1550339424568
134, 14.85, 19.67, 36.59, 2.11, -0.240, 0.976, -0.016, 19:50:24.568, 1550339424568
135, -3.38, -13.27, 108.13, 68.28, -0.240, 0.976, -0.016, 19:50:24.582, 1550339424582
136, 64.33, 69.60, 120.50, 80.29, -0.240, 0.976, -0.016, 19:50:24.582, 1550339424582
137, 84.15, 107.00, 53.33, 21.83, -0.240, 0.976, -0.016, 19:50:24.583, 1550339424583
138, 13.96, 19.75, 35.82, -2.81, -0.240, 0.976, -0.016, 19:50:24.583, 1550339424583
139, -0.74, -8.38, 113.88, 57.96, -0.240, 0.976, -0.016, 19:50:24.597, 1550339424597
140, 60.35, 69.18, 118.51, 72.65, -0.240, 0.976, -0.016, 19:50:24.597, 1550339424597
141, 85.46, 102.08, 48.62, 16.29, -0.240, 0.976, -0.016, 19:50:24.612, 1550339424612
142, 9.14, 13.45, 36.10, -3.33, -0.240, 0.976, -0.016, 19:50:24.612, 1550339424612
143, -5.70, -12.80, 110.94, 54.61, -0.240, 0.976, -0.016, 19:50:24.613, 1550339424613
144, 57.18, 64.30, 119.35, 63.37, -0.240, 0.976, -0.016, 19:50:24.613, 1550339424613
145, 80.91, 98.04, 49.22, -3.60, -0.240, 0.976, -0.016, 19:50:24.628, 1550339424628
146, 11.22, 17.41, 37.30, -6.06, -0.256, 0.976, -0.016, 19:50:24.628, 1550339424628
147, -8.32, -16.12, 107.37, 54.84, -0.256, 0.976, -0.016, 19:50:24.642, 1550339424642
148, 70.93, 76.35, 128.08, 82.72, -0.256, 0.976, -0.016, 19:50:24.642, 1550339424642
149, 85.86, 107.31, 51.09, 17.19, -0.256, 0.976, -0.016, 19:50:24.643, 1550339424643
150, 7.52, 12.85, 30.04, -4.62, -0.256, 0.976, -0.016, 19:50:24.643, 1550339424643
151, 0.36, -6.95, 115.49, 65.40, -0.256, 0.976, -0.016, 19:50:24.657, 1550339424657
152, 63.65, 69.47, 121.27, 75.88, -0.256, 0.976, -0.016, 19:50:24.657, 1550339424657
153, 82.74, 98.75, 47.90, 8.05, -0.256, 0.976, -0.016, 19:50:24.672, 1550339424672
154, 13.12, 10.50, 35.39, -9.62, -0.256, 0.976, -0.016, 19:50:24.672, 1550339424672
155, -7.56, -18.78, 102.67, 56.40, -0.256, 0.976, -0.016, 19:50:24.673, 1550339424673
156, 65.88, 73.14, 126.72, 77.50, -0.256, 0.976, -0.016, 19:50:24.673, 1550339424673
157, 82.34, 104.10, 53.53, 8.95, -0.256, 0.976, -0.016, 19:50:24.687, 1550339424687
158, 8.79, 13.26, 33.13, -10.30, -0.256, 0.976, -0.016, 19:50:24.687, 1550339424687
159, 0.04, -5.33, 118.94, 61.54, -0.256, 0.976, -0.016, 19:50:24.702, 1550339424702
160, 64.85, 72.02, 123.71, 74.04, -0.256, 0.976, -0.016, 19:50:24.702, 1550339424702
161, 89.73, 110.23, 57.42, 17.89, -0.256, 0.976, -0.016, 19:50:24.703, 1550339424703
162, 12.03, 15.39, 33.48, -8.39, -0.256, 0.976, -0.016, 19:50:24.703, 1550339424703
163, -3.88, -13.85, 106.86, 58.81, -0.256, 0.976, -0.016, 19:50:24.717, 1550339424717
164, 63.37, 72.91, 124.94, 81.08, -0.256, 0.976, -0.016, 19:50:24.717, 1550339424717
165, 92.32, 105.48, 59.33, 19.17, -0.256, 0.976, -0.016, 19:50:24.732, 1550339424732
166, 7.78, 12.53, 27.14, -14.88, -0.256, 0.976, -0.016, 19:50:24.732, 1550339424732
167, -7.10, -10.14, 114.08, 57.52, -0.256, 0.976, -0.016, 19:50:24.733, 1550339424733
168, 59.31, 70.21, 123.72, 73.71, -0.256, 0.976, -0.016, 19:50:24.733, 1550339424733
169, 86.71, 108.70, 61.69, 16.36, -0.256, 0.976, -0.016, 19:50:24.748, 1550339424748
170, 17.10, 19.17, 43.81, -1.24, -0.256, 0.976, -0.016, 19:50:24.748, 1550339424748
171, -1.54, -10.20, 119.68, 59.82, -0.256, 0.976, -0.016, 19:50:24.763, 1550339424763
172, 61.74, 68.05, 122.78, 74.46, -0.256, 0.976, -0.016, 19:50:24.763, 1550339424763
173, 89.45, 103.72, 54.43, 13.33, -0.256, 0.976, -0.016, 19:50:24.763, 1550339424763
174, 10.02, 9.97, 32.62, -9.19, -0.256, 0.976, -0.016, 19:50:24.763, 1550339424763
175, -7.93, -11.87, 117.32, 58.50, -0.256, 0.976, -0.016, 19:50:24.778, 1550339424778
176, 59.62, 66.37, 125.57, 67.46, -0.256, 0.976, -0.016, 19:50:24.778, 1550339424778
177, 91.54, 111.32, 63.56, 20.24, -0.256, 0.976, -0.016, 19:50:24.792, 1550339424792
178, 19.39, 22.62, 46.01, -0.07, -0.256, 0.976, -0.016, 19:50:24.792, 1550339424792
179, -0.43, -11.39, 118.39, 61.07, -0.256, 0.976, -0.016, 19:50:24.793, 1550339424793
180, 60.14, 66.98, 123.59, 70.50, -0.256, 0.976, -0.016, 19:50:24.793, 1550339424793
181, 90.90, 103.17, 57.57, 18.47, -0.256, 0.976, -0.016, 19:50:24.809, 1550339424809
182, 2.83, 3.74, 29.64, -16.27, -0.256, 0.976, -0.016, 19:50:24.809, 1550339424809
183, -15.91, -25.53, 97.36, 33.36, -0.256, 0.976, -0.016, 19:50:24.822, 1550339424822
184, 60.14, 66.96, 121.69, 58.79, -0.256, 0.976, -0.016, 19:50:24.822, 1550339424822
185, 78.72, 94.00, 49.13, -6.41, -0.256, 0.976, -0.016, 19:50:24.822, 1550339424822
186, 6.95, 7.92, 29.73, -26.97, -0.272, 0.976, -0.016, 19:50:24.822, 1550339424822
187, -5.91, -14.00, 116.05, 46.91, -0.272, 0.976, -0.016, 19:50:24.837, 1550339424837
188, 69.39, 79.81, 138.55, 75.41, -0.272, 0.976, -0.016, 19:50:24.837, 1550339424837
189, 86.34, 111.07, 66.74, 12.10, -0.272, 0.976, -0.016, 19:50:24.852, 1550339424852
190, 20.39, 27.10, 54.48, 9.71, -0.272, 0.976, -0.016, 19:50:24.852, 1550339424852
191, 4.70, 1.27, 129.61, 72.98, -0.272, 0.976, -0.016, 19:50:24.859, 1550339424859
192, 67.44, 72.85, 130.37, 74.09, -0.272, 0.976, -0.016, 19:50:24.859, 1550339424859
193, 86.66, 106.26, 55.04, 17.04, -0.272, 0.976, -0.016, 19:50:24.867, 1550339424867
194, 19.07, 24.92, 49.08, 7.58, -0.272, 0.976, -0.016, 19:50:24.867, 1550339424867
195, -11.65, -17.61, 98.98, 50.56, -0.272, 0.976, -0.016, 19:50:24.882, 1550339424882
196, 70.72, 75.25, 125.27, 82.47, -0.272, 0.976, -0.016, 19:50:24.882, 1550339424882
197, 74.62, 95.53, 38.55, 5.50, -0.272, 0.976, -0.016, 19:50:24.882, 1550339424882
198, 9.68, 10.22, 29.88, -5.19, -0.272, 0.976, -0.016, 19:50:24.882, 1550339424882
199, -3.49, -10.17, 113.56, 64.12, -0.272, 0.976, -0.016, 19:50:24.897, 1550339424897
200, 80.13, 85.67, 140.75, 104.78, -0.272, 0.976, -0.016, 19:50:24.897, 1550339424897
0, 65.90, 81.91, 25.05, -17.66, -0.272, 0.976, -0.016, 19:50:24.899, 1550339424899
1, 10.50, 11.55, 42.05, -16.68, -0.272, 0.976, -0.016, 19:50:24.912, 1550339424912
2, 6.94, -3.47, 127.58, 66.60, -0.272, 0.976, -0.016, 19:50:24.912, 1550339424912
3, 53.73, 58.99, 108.83, 53.14, -0.272, 0.976, -0.016, 19:50:24.927, 1550339424927
4, 91.57, 111.76, 55.78, 32.66, -0.272, 0.976, -0.016, 19:50:24.927, 1550339424927
5, 16.15, 20.68, 65.50, -10.15, -0.272, 0.976, -0.016, 19:50:24.928, 1550339424928
6, -37.02, -45.72, 74.34, -10.35, -0.240, 0.976, 0.000, 19:50:24.928, 1550339424928
7, 48.21, 52.86, 110.47, 30.33, -0.240, 0.976, 0.000, 19:50:24.942, 1550339424942
8, 89.20, 110.42, 78.94, 1.63, -0.240, 0.976, 0.000, 19:50:24.942, 1550339424942
9, 9.74, 10.82, 68.84, -52.41, -0.240, 0.976, 0.000, 19:50:24.960, 1550339424960
10, -51.28, -62.65, 108.15, -83.01, -0.240, 0.976, 0.000, 19:50:24.960, 1550339424960
11, 48.68, 54.53, 178.22, -30.01, -0.240, 0.976, 0.000, 19:50:24.961, 1550339424961
12, 35.54, 54.93, 76.78, -173.70, -0.240, 0.976, 0.000, 19:50:24.961, 1550339424961
13, 0.25, -1.90, 136.70, -139.40, -0.240, 0.976, 0.000, 19:50:24.972, 1550339424972
14, -41.74, -52.64, 197.12, -125.49, -0.240, 0.976, 0.000, 19:50:24.972, 1550339424972
15, 45.49, 50.91, 244.14, -94.42, -0.240, 0.976, 0.000, 19:50:24.988, 1550339424988
16, 61.22, 81.43, 162.05, -165.45, -0.240, 0.976, 0.000, 19:50:24.988, 1550339424988
17, -0.26, -0.39, 159.84, -161.76, -0.240, 0.976, 0.000, 19:50:24.989, 1550339424989
18, 9.10, -3.44, 273.45, -60.05, -0.240, 0.976, 0.000, 19:50:24.989, 1550339424989
19, 58.39, 63.64, 234.37, -50.55, -0.240, 0.976, 0.000, 19:50:25.002, 1550339425002
20, 57.55, 77.85, 140.04, -144.67, -0.240, 0.976, 0.000, 19:50:25.002, 1550339425002
21, 14.70, 18.99, 143.63, -97.04, -0.240, 0.976, 0.000, 19:50:25.017, 1550339425017
22, -12.04, -16.80, 211.84, -47.32, -0.240, 0.976, 0.000, 19:50:25.017, 1550339425017
23, 73.19, 83.51, 224.64, 8.91, -0.240, 0.976, 0.000, 19:50:25.020, 1550339425020
24, 83.31, 106.59, 147.64, -70.40, -0.240, 0.976, 0.000, 19:50:25.020, 1550339425020
25, -13.10, -6.11, 87.15, -117.74, -0.240, 0.976, 0.000, 19:50:25.032, 1550339425032
26, 14.72, 6.83, 204.19, 35.10, -0.272, 0.976, 0.000, 19:50:25.032, 1550339425032
27, 74.39, 77.89, 197.20, 28.79, -0.272, 0.976, 0.000, 19:50:25.047, 1550339425047
28, 77.11, 97.29, 95.53, -51.29, -0.272, 0.976, 0.000, 19:50:25.047, 1550339425047
29, 22.39, 24.16, 112.57, -36.79, -0.272, 0.976, 0.000, 19:50:25.048, 1550339425048
30, 22.06, 16.04, 191.97, 70.79, -0.272, 0.976, 0.000, 19:50:25.048, 1550339425048
31, 50.81, 55.58, 145.37, 18.08, -0.272, 0.976, 0.000, 19:50:25.062, 1550339425062
32, 84.67, 106.61, 83.27, -13.74, -0.272, 0.976, 0.000, 19:50:25.062, 1550339425062
33, 21.35, 20.40, 81.98, -9.51, -0.272, 0.976, 0.000, 19:50:25.078, 1550339425078
34, -12.79, -17.60, 131.24, 20.62, -0.272, 0.976, 0.000, 19:50:25.078, 1550339425078
35, 75.41, 84.02, 151.46, 76.70, -0.272, 0.976, 0.000, 19:50:25.078, 1550339425078
36, 81.86, 96.21, 73.38, -6.85, -0.272, 0.976, 0.000, 19:50:25.078, 1550339425078
37, -6.13, -0.30, 32.89, -46.95, -0.272, 0.976, 0.000, 19:50:25.092, 1550339425092
38, 42.95, 36.72, 198.02, 119.44, -0.272, 0.976, 0.000, 19:50:25.092, 1550339425092
39, 59.73, 67.08, 133.15, 52.12, -0.272, 0.976, 0.000, 19:50:25.107, 1550339425107
40, 70.73, 87.99, 46.45, -16.34, -0.272, 0.976, 0.000, 19:50:25.107, 1550339425107
41, -1.84, 2.11, 31.83, -32.69, -0.272, 0.976, 0.000, 19:50:25.109, 1550339425109
42, 28.52, 11.66, 166.57, 99.07, -0.272, 0.976, 0.000, 19:50:25.109, 1550339425109
43, 76.07, 82.89, 157.00, 75.58, -0.272, 0.976, 0.000, 19:50:25.123, 1550339425123
44, 85.42, 107.63, 63.85, 6.69, -0.272, 0.976, 0.000, 19:50:25.123, 1550339425123
45, 9.59, 12.42, 50.86, -28.57, -0.272, 0.976, 0.000, 19:50:25.138, 1550339425138
46, 4.06, -2.11, 136.88, 72.97, -0.240, 0.960, -0.016, 19:50:25.138, 1550339425138
47, 64.70, 74.58, 143.34, 61.50, -0.240, 0.960, -0.016, 19:50:25.138, 1550339425138
48, 97.10, 115.11, 65.45, 30.40, -0.240, 0.960, -0.016, 19:50:25.138, 1550339425138
49, 8.36, 16.50, 51.54, -17.99, -0.240, 0.960, -0.016, 19:50:25.153, 1550339425153
50, 4.07, -3.21, 143.31, 62.67, -0.240, 0.960, -0.016, 19:50:25.153, 1550339425153
51, 90.47, 97.76, 167.08, 112.00, -0.240, 0.960, -0.016, 19:50:25.168, 1550339425168
52, 78.26, 94.15, 42.28, 4.40, -0.240, 0.960, -0.016, 19:50:25.168, 1550339425168
53, 27.07, 28.82, 72.24, 13.41, -0.240, 0.960, -0.016, 19:50:25.168, 1550339425168
54, -0.70, -14.74, 109.08, 46.71, -0.240, 0.960, -0.016, 19:50:25.168, 1550339425168
55, 74.55, 81.20, 140.76, 98.75, -0.240, 0.960, -0.016, 19:50:25.184, 1550339425184
56, 98.63, 113.61, 76.11, 24.53, -0.240, 0.960, -0.016, 19:50:25.184, 1550339425184
57, 11.16, 13.52, 36.87, -8.38, -0.240, 0.960, -0.016, 19:50:25.197, 1550339425197
58, -21.27, -28.98, 102.89, 33.57, -0.240, 0.960, -0.016, 19:50:25.197, 1550339425197
59, 91.84, 100.17, 171.63, 112.98, -0.240, 0.960, -0.016, 19:50:25.197, 1550339425197
60, 101.42, 119.88, 79.70, 39.61, -0.240, 0.960, -0.016, 19:50:25.197, 1550339425197
61, -13.17, -9.84, 6.16, -53.95, -0.240, 0.960, -0.016, 19:50:25.212, 1550339425212
62, 8.47, 5.97, 136.98, 85.42, -0.240, 0.960, -0.016, 19:50:25.212, 1550339425212
63, 81.86, 86.15, 158.96, 96.56, -0.240, 0.960, -0.016, 19:50:25.227, 1550339425227
64, 81.00, 101.45, 48.36, 2.02, -0.240, 0.960, -0.016, 19:50:25.227, 1550339425227
65, 17.47, 20.61, 49.21, -3.60, -0.240, 0.960, -0.016, 19:50:25.227, 1550339425227
66, -4.17, -9.76, 113.90, 62.27, -0.240, 0.976, 0.000, 19:50:25.227, 1550339425227
67, 70.47, 78.11, 128.39, 84.14, -0.240, 0.976, 0.000, 19:50:25.243, 1550339425243
68, 98.09, 115.23, 72.54, 32.38, -0.240, 0.976, 0.000, 19:50:25.243, 1550339425243
69, 27.69, 31.37, 67.69, 24.26, -0.240, 0.976, 0.000, 19:50:25.257, 1550339425257
70, -14.41, -22.24, 96.55, 48.44, -0.240, 0.976, 0.000, 19:50:25.257, 1550339425257
71, 66.96, 77.49, 126.97, 91.39, -0.240, 0.976, 0.000, 19:50:25.257, 1550339425257
72, 87.42, 107.37, 60.77, 10.86, -0.240, 0.976, 0.000, 19:50:25.257, 1550339425257
73, 37.15, 39.19, 72.86, 41.62, -0.240, 0.976, 0.000, 19:50:25.279, 1550339425279
74, -13.90, -23.53, 91.73, 44.42, -0.240, 0.976, 0.000, 19:50:25.279, 1550339425279
75, 90.73, 99.59, 165.44, 101.24, -0.240, 0.976, 0.000, 19:50:25.288, 1550339425288
76, 89.41, 109.46, 56.01, 22.47, -0.240, 0.976, 0.000, 19:50:25.288, 1550339425288
77, 5.28, 10.24, 27.92, -11.76, -0.240, 0.976, 0.000, 19:50:25.288, 1550339425288
78, 8.20, 1.17, 128.27, 76.59, -0.240, 0.976, 0.000, 19:50:25.288, 1550339425288
79, 65.25, 72.30, 121.77, 71.97, -0.240, 0.976, 0.000, 19:50:25.302, 1550339425302
80, 93.23, 112.78, 56.01, 35.05, -0.240, 0.976, 0.000, 19:50:25.302, 1550339425302
81, 18.49, 21.12, 56.40, 0.92, -0.240, 0.976, 0.000, 19:50:25.318, 1550339425318
82, -22.00, -33.06, 82.19, 30.19, -0.240, 0.976, 0.000, 19:50:25.318, 1550339425318
83, 76.25, 82.37, 134.00, 96.29, -0.240, 0.976, 0.000, 19:50:25.319, 1550339425319
84, 84.45, 102.63, 50.20, 14.23, -0.240, 0.976, 0.000, 19:50:25.319, 1550339425319
85, 29.02, 33.40, 64.16, 30.60, -0.240, 0.976, 0.000, 19:50:25.332, 1550339425332
86, 8.34, 0.83, 131.18, 76.06, -0.256, 0.976, 0.000, 19:50:25.332, 1550339425332
87, 63.85, 71.70, 111.02, 82.14, -0.256, 0.976, 0.000, 19:50:25.347, 1550339425347
88, 95.43, 115.41, 63.08, 34.65, -0.256, 0.976, 0.000, 19:50:25.347, 1550339425347
89, 25.43, 29.77, 49.92, 35.52, -0.256, 0.976, 0.000, 19:50:25.348, 1550339425348
90, -0.55, -6.33, 97.64, 78.73, -0.256, 0.976, 0.000, 19:50:25.348, 1550339425348
91, 63.19, 66.80, 110.80, 72.38, -0.256, 0.976, 0.000, 19:50:25.363, 1550339425363
92, 96.01, 118.41, 64.33, 39.98, -0.256, 0.976, 0.000, 19:50:25.363, 1550339425363
93, 21.04, 24.50, 49.69, 24.11, -0.256, 0.976, 0.000, 19:50:25.377, 1550339425377
94, -11.43, -16.26, 90.13, 55.82, -0.256, 0.976, 0.000, 19:50:25.377, 1550339425377
95, 77.06, 85.31, 135.49, 97.31, -0.256, 0.976, 0.000, 19:50:25.378, 1550339425378
96, 85.35, 97.15, 35.33, 25.72, -0.256, 0.976, 0.000, 19:50:25.378, 1550339425378
97, 18.06, 21.50, 35.65, 20.87, -0.256, 0.976, 0.000, 19:50:25.393, 1550339425393
98, -11.69, -20.27, 100.69, 52.49, -0.256, 0.976, 0.000, 19:50:25.393, 1550339425393
99, 70.99, 77.51, 121.31, 91.86, -0.256, 0.976, 0.000, 19:50:25.407, 1550339425407
100, 111.54, 131.81, 84.97, 72.19, -0.256, 0.976, 0.000, 19:50:25.407, 1550339425407
101, -33.35, -28.18, -30.55, -68.15, -0.256, 0.976, 0.000, 19:50:25.408, 1550339425408
102, 36.20, 29.54, 168.97, 124.65, -0.256, 0.976, 0.000, 19:50:25.408, 1550339425408
103, 89.01, 97.17, 150.63, 115.27, -0.256, 0.976, 0.000, 19:50:25.422, 1550339425422
104, 61.34, 77.08, 21.38, -30.21, -0.256, 0.976, 0.000, 19:50:25.422, 1550339425422
105, 7.34, 11.08, 29.01, -4.24, -0.256, 0.976, 0.000, 19:50:25.437, 1550339425437
106, 18.18, 8.72, 144.42, 96.23, -0.272, 0.976, 0.000, 19:50:25.437, 1550339425437
107, 76.16, 77.11, 142.67, 79.38, -0.272, 0.976, 0.000, 19:50:25.438, 1550339425438
108, 76.18, 94.45, 42.44, -1.91, -0.272, 0.976, 0.000, 19:50:25.438, 1550339425438
109, 25.59, 29.74, 61.61, 18.90, -0.272, 0.976, 0.000, 19:50:25.452, 1550339425452
110, -25.96, -28.91, 95.83, 26.27, -0.272, 0.976, 0.000, 19:50:25.452, 1550339425452
111, 84.01, 95.72, 155.16, 103.61, -0.272, 0.976, 0.000, 19:50:25.467, 1550339425467
112, 93.71, 109.43, 67.13, 17.11, -0.272, 0.976, 0.000, 19:50:25.467, 1550339425467
113, -6.10, 6.27, 37.03, -30.44, -0.272, 0.976, 0.000, 19:50:25.468, 1550339425468
114, 15.06, 6.72, 145.61, 89.66, -0.272, 0.976, 0.000, 19:50:25.468, 1550339425468
115, 68.60, 74.73, 134.66, 61.62, -0.272, 0.976, 0.000, 19:50:25.484, 1550339425484
116, 72.79, 91.21, 41.70, -10.00, -0.272, 0.976, 0.000, 19:50:25.484, 1550339425484
117, 16.40, 15.31, 46.03, -4.37, -0.272, 0.976, 0.000, 19:50:25.498, 1550339425498
118, -24.32, -29.84, 80.68, 35.18, -0.272, 0.976, 0.000, 19:50:25.498, 1550339425498
119, 71.86, 71.72, 127.71, 70.49, -0.272, 0.976, 0.000, 19:50:25.498, 1550339425498
120, 91.99, 113.34, 69.39, 19.28, -0.272, 0.976, 0.000, 19:50:25.498, 1550339425498
121, -2.67, -1.02, 12.12, -19.94, -0.272, 0.976, 0.000, 19:50:25.513, 1550339425513
122, 18.19, 11.99, 155.50, 84.97, -0.272, 0.976, 0.000, 19:50:25.513, 1550339425513
123, 59.77, 70.12, 125.92, 65.48, -0.272, 0.976, 0.000, 19:50:25.528, 1550339425528
124, 106.03, 125.82, 87.33, 41.83, -0.272, 0.976, 0.000, 19:50:25.528, 1550339425528
125, 27.68, 30.07, 68.19, 13.07, -0.272, 0.976, 0.000, 19:50:25.529, 1550339425529
126, 11.46, 4.59, 139.74, 83.57, -0.272, 0.976, -0.016, 19:50:25.529, 1550339425529
127, 76.80, 82.01, 137.68, 74.75, -0.272, 0.976, -0.016, 19:50:25.543, 1550339425543
128, 92.01, 109.29, 55.92, 23.99, -0.272, 0.976, -0.016, 19:50:25.543, 1550339425543
129, 9.51, 13.03, 46.19, -9.00, -0.272, 0.976, -0.016, 19:50:25.557, 1550339425557
130, -28.43, -34.33, 84.72, 28.36, -0.272, 0.976, -0.016, 19:50:25.558, 1550339425558
131, 84.33, 92.33, 151.33, 115.78, -0.272, 0.976, -0.016, 19:50:25.558, 1550339425558
132, 87.87, 109.09, 52.15, 26.30, -0.272, 0.976, -0.016, 19:50:25.558, 1550339425558
133, 15.61, 20.93, 43.08, 12.26, -0.272, 0.976, -0.016, 19:50:25.573, 1550339425573
134, 6.57, 2.09, 122.42, 84.01, -0.272, 0.976, -0.016, 19:50:25.573, 1550339425573
135, 72.06, 81.76, 123.35, 92.53, -0.272, 0.976, -0.016, 19:50:25.588, 1550339425588
136, 78.50, 95.37, 41.37, 8.56, -0.272, 0.976, -0.016, 19:50:25.588, 1550339425588
137, 18.28, 23.03, 42.52, 17.69, -0.272, 0.976, -0.016, 19:50:25.588, 1550339425588
138, -0.65, -7.67, 109.67, 71.95, -0.272, 0.976, -0.016, 19:50:25.588, 1550339425588
139, 77.02, 79.02, 127.27, 100.60, -0.272, 0.976, -0.016, 19:50:25.603, 1550339425603
140, 82.75, 100.88, 39.94, 21.08, -0.272, 0.976, -0.016, 19:50:25.603, 1550339425603
141, 29.79, 32.16, 46.82, 42.78, -0.272, 0.976, -0.016, 19:50:25.618, 1550339425618
142, -1.97, -11.46, 105.53, 65.34, -0.272, 0.976, -0.016, 19:50:25.618, 1550339425618
143, 70.12, 79.21, 137.29, 80.67, -0.272, 0.976, -0.016, 19:50:25.618, 1550339425618
144, 92.94, 111.71, 50.89, 36.24, -0.272, 0.976, -0.016, 19:50:25.618, 1550339425618
145, 18.65, 26.16, 44.88, 30.04, -0.272, 0.976, -0.016, 19:50:25.633, 1550339425633
146, 12.81, 4.45, 145.57, 86.63, -0.256, 0.976, 0.000, 19:50:25.633, 1550339425633
147, 73.64, 81.00, 123.27, 92.32, -0.256, 0.976, 0.000, 19:50:25.648, 1550339425648
148, 108.60, 127.14, 51.16, 84.03, -0.256, 0.976, 0.000, 19:50:25.648, 1550339425648
149, 23.88, 26.40, 31.83, 46.68, -0.256, 0.976, 0.000, 19:50:25.648, 1550339425648
150, 25.09, 17.65, 110.14, 144.70, -0.256, 0.976, 0.000, 19:50:25.648, 1550339425648
151, 92.99, 98.57, 109.63, 176.79, -0.256, 0.976, 0.000, 19:50:25.663, 1550339425663
152, 105.29, 123.66, 36.87, 100.06, -0.256, 0.976, 0.000, 19:50:25.663, 1550339425663
153, 53.64, 55.07, 45.58, 131.81, -0.256, 0.976, 0.000, 19:50:25.677, 1550339425677
154, 37.16, 31.04, 107.87, 190.48, -0.256, 0.976, 0.000, 19:50:25.677, 1550339425677
155, 81.03, 95.80, 92.38, 157.82, -0.256, 0.976, 0.000, 19:50:25.677, 1550339425677
156, 110.81, 124.29, 34.62, 110.19, -0.256, 0.976, 0.000, 19:50:25.677, 1550339425677
157, 34.92, 38.14, 19.72, 105.19, -0.256, 0.976, 0.000, 19:50:25.692, 1550339425692
158, 7.83, 7.53, 85.11, 146.45, -0.256, 0.976, 0.000, 19:50:25.692, 1550339425692
159, 94.39, 106.08, 116.78, 179.55, -0.256, 0.976, 0.000, 19:50:25.707, 1550339425707
160, 114.28, 132.81, 27.86, 130.49, -0.256, 0.976, 0.000, 19:50:25.707, 1550339425707
161, 32.42, 32.88, 10.33, 101.59, -0.256, 0.976, 0.000, 19:50:25.707, 1550339425707
162, 26.89, 17.01, 92.23, 159.67, -0.256, 0.976, 0.000, 19:50:25.707, 1550339425707
163, 81.73, 90.16, 90.84, 157.40, -0.256, 0.976, 0.000, 19:50:25.722, 1550339425722
164, 92.49, 108.10, 1.22, 67.58, -0.256, 0.976, 0.000, 19:50:25.722, 1550339425722
165, 17.52, 21.93, 0.52, 51.25, -0.256, 0.976, 0.000, 19:50:25.737, 1550339425737
166, 1.64, -5.55, 82.43, 106.47, -0.272, 0.960, 0.016, 19:50:25.737, 1550339425737
167, 64.56, 72.04, 81.79, 96.75, -0.272, 0.960, 0.016, 19:50:25.738, 1550339425738
168, 83.14, 99.16, 20.74, 24.75, -0.272, 0.960, 0.016, 19:50:25.738, 1550339425738
169, -1.64, 4.44, -1.04, -6.16, -0.272, 0.960, 0.016, 19:50:25.752, 1550339425752
170, -4.83, -9.49, 98.17, 71.79, -0.272, 0.960, 0.016, 19:50:25.752, 1550339425752
171, 72.43, 78.59, 115.58, 87.55, -0.272, 0.960, 0.016, 19:50:25.768, 1550339425768
172, 75.95, 100.02, 38.06, 4.27, -0.272, 0.960, 0.016, 19:50:25.768, 1550339425768
173, 1.01, 4.11, 30.27, -14.22, -0.272, 0.960, 0.016, 19:50:25.769, 1550339425769
174, -11.04, -18.02, 102.92, 45.93, -0.272, 0.960, 0.016, 19:50:25.769, 1550339425769
175, 68.34, 71.80, 122.48, 64.80, -0.272, 0.960, 0.016, 19:50:25.782, 1550339425782
176, 89.89, 106.17, 62.83, 7.32, -0.272, 0.960, 0.016, 19:50:25.782, 1550339425782
177, 7.11, 7.95, 40.09, -16.91, -0.272, 0.960, 0.016, 19:50:25.798, 1550339425798
178, -2.66, -13.91, 113.64, 41.27, -0.272, 0.960, 0.016, 19:50:25.798, 1550339425798
179, 73.24, 81.52, 139.27, 75.02, -0.272, 0.960, 0.016, 19:50:25.798, 1550339425798
180, 82.22, 99.46, 49.22, 1.76, -0.272, 0.960, 0.016, 19:50:25.798, 1550339425798
181, 2.15, 6.14, 37.57, -14.62, -0.272, 0.960, 0.016, 19:50:25.812, 1550339425812
182, -1.65, -10.28, 115.38, 62.91, -0.272, 0.960, 0.016, 19:50:25.812, 1550339425812
183, 58.83, 65.55, 117.03, 61.51, -0.272, 0.960, 0.016, 19:50:25.828, 1550339425828
184, 78.00, 98.96, 46.43, 12.50, -0.272, 0.960, 0.016, 19:50:25.828, 1550339425828
185, 8.92, 7.49, 40.55, -6.56, -0.272, 0.960, 0.016, 19:50:25.829, 1550339425829
186, -13.15, -19.45, 106.10, 46.92, -0.256, 0.960, 0.000, 19:50:25.829, 1550339425829
187, 69.03, 76.22, 126.03, 74.42, -0.256, 0.960, 0.000, 19:50:25.842, 1550339425842
188, 82.09, 100.16, 40.64, 4.21, -0.256, 0.960, 0.000, 19:50:25.842, 1550339425842
189, 12.90, 10.44, 32.52, 3.38, -0.256, 0.960, 0.000, 19:50:25.857, 1550339425857
190, -11.13, -16.09, 99.66, 61.28, -0.256, 0.960, 0.000, 19:50:25.857, 1550339425857
191, 70.53, 77.50, 122.45, 80.37, -0.256, 0.960, 0.000, 19:50:25.859, 1550339425859
192, 80.68, 98.01, 40.31, 15.31, -0.256, 0.960, 0.000, 19:50:25.859, 1550339425859
193, 10.76, 10.73, 38.78, 7.09, -0.256, 0.960, 0.000, 19:50:25.872, 1550339425872
194, -9.78, -13.25, 100.97, 60.03, -0.256, 0.960, 0.000, 19:50:25.872, 1550339425872
195, 67.46, 82.15, 117.67, 88.19, -0.256, 0.960, 0.000, 19:50:25.887, 1550339425887
196, 81.12, 99.50, 35.87, 17.67, -0.256, 0.960, 0.000, 19:50:25.887, 1550339425887
197, 16.09, 19.22, 34.72, 20.29, -0.256, 0.960, 0.000, 19:50:25.888, 1550339425888
198, 0.77, -6.40, 106.34, 88.27, -0.256, 0.960, 0.000, 19:50:25.888, 1550339425888
199, 65.74, 71.80, 105.48, 86.77, -0.256, 0.960, 0.000, 19:50:25.902, 1550339425902
200, 88.52, 104.38, 46.05, 38.69, -0.256, 0.960, 0.000, 19:50:25.902, 1550339425902
0, 9.33, 11.20, 25.35, 15.66, -0.256, 0.960, 0.000, 19:50:25.903, 1550339425903
1, 2.83, -6.94, 105.76, 84.58, -0.256, 0.960, 0.000, 19:50:25.917, 1550339425917
2, 69.52, 82.19, 115.83, 104.12, -0.256, 0.960, 0.000, 19:50:25.917, 1550339425917
3, 85.91, 106.04, 38.49, 34.01, -0.256, 0.960, 0.000, 19:50:25.932, 1550339425932
4, 9.48, 14.85, 24.35, 13.93, -0.256, 0.960, 0.000, 19:50:25.932, 1550339425932
5, -2.26, -11.17, 102.42, 72.58, -0.256, 0.960, 0.000, 19:50:25.933, 1550339425933
6, 73.76, 75.79, 120.11, 89.28, -0.272, 0.976, 0.000, 19:50:25.933, 1550339425933
7, 92.11, 110.57, 51.65, 30.42, -0.272, 0.976, 0.000, 19:50:25.948, 1550339425948
8, 11.89, 14.71, 35.59, 11.17, -0.272, 0.976, 0.000, 19:50:25.948, 1550339425948
9, -1.97, -9.61, 106.78, 69.20, -0.272, 0.976, 0.000, 19:50:25.962, 1550339425962
10, 74.15, 82.93, 128.17, 88.93, -0.272, 0.976, 0.000, 19:50:25.962, 1550339425962
11, 85.80, 103.33, 43.27, 18.90, -0.272, 0.976, 0.000, 19:50:25.963, 1550339425963
12, 21.53, 20.65, 44.80, 20.40, -0.272, 0.976, 0.000, 19:50:25.963, 1550339425963
13, 3.94, -6.07, 109.77, 80.73, -0.272, 0.976, 0.000, 19:50:25.977, 1550339425977
14, 69.16, 77.36, 113.27, 84.89, -0.272, 0.976, 0.000, 19:50:25.977, 1550339425977
15, 85.97, 102.93, 41.53, 22.35, -0.272, 0.976, 0.000, 19:50:25.992, 1550339425992
16, 13.18, 11.00, 36.35, 9.13, -0.272, 0.976, 0.000, 19:50:25.992, 1550339425992
17, -2.53, -9.74, 101.30, 71.12, -0.272, 0.976, 0.000, 19:50:25.993, 1550339425993
18, 71.62, 77.77, 117.94, 85.81, -0.272, 0.976, 0.000, 19:50:25.993, 1550339425993
19, 93.04, 103.89, 49.96, 26.41, -0.272, 0.976, 0.000, 19:50:26.007, 1550339426007
20, 12.41, 14.05, 27.26, 6.34, -0.272, 0.976, 0.000, 19:50:26.007, 1550339426007
21, -4.97, -10.58, 100.30, 64.32, -0.272, 0.976, 0.000, 19:50:26.023, 1550339426023
22, 69.43, 79.46, 121.20, 89.75, -0.272, 0.976, 0.000, 19:50:26.023, 1550339426023
23, 79.02, 97.07, 37.30, 8.44, -0.272, 0.976, 0.000, 19:50:26.023, 1550339426023
24, 9.19, 10.91, 31.53, 0.07, -0.272, 0.976, 0.000, 19:50:26.023, 1550339426023
25, -1.59, -6.27, 114.47, 70.61, -0.272, 0.976, 0.000, 19:50:26.038, 1550339426038
26, 67.42, 78.37, 123.31, 82.38, -0.256, 0.976, -0.016, 19:50:26.038, 1550339426038
27, 87.10, 103.67, 46.28, 16.81, -0.256, 0.976, -0.016, 19:50:26.054, 1550339426054
28, 13.32, 18.91, 39.64, 9.08, -0.256, 0.976, -0.016, 19:50:26.054, 1550339426054
29, -2.82, -7.31, 109.19, 73.52, -0.256, 0.976, -0.016, 19:50:26.054, 1550339426054
30, 70.06, 77.65, 120.88, 81.04, -0.256, 0.976, -0.016, 19:50:26.054, 1550339426054
31, 89.20, 107.74, 46.97, 22.44, -0.256, 0.976, -0.016, 19:50:26.068, 1550339426068
32, 9.03, 12.26, 35.30, 4.43, -0.256, 0.976, -0.016, 19:50:26.068, 1550339426068
33, 7.12, 2.70, 124.95, 78.40, -0.256, 0.976, -0.016, 19:50:26.083, 1550339426083
34, 65.13, 72.58, 113.84, 70.79, -0.256, 0.976, -0.016, 19:50:26.083, 1550339426083
35, 84.76, 104.76, 52.10, 21.26, -0.256, 0.976, -0.016, 19:50:26.083, 1550339426083
36, 11.32, 9.77, 36.36, -3.24, -0.256, 0.976, -0.016, 19:50:26.083, 1550339426083
37, -7.76, -14.88, 108.64, 62.41, -0.256, 0.976, -0.016, 19:50:26.097, 1550339426097
38, 68.29, 76.89, 127.90, 84.07, -0.256, 0.976, -0.016, 19:50:26.097, 1550339426097
39, 89.42, 106.16, 53.84, 23.46, -0.256, 0.976, -0.016, 19:50:26.112, 1550339426112
40, 2.31, 9.68, 31.25, -4.19, -0.256, 0.976, -0.016, 19:50:26.112, 1550339426112
41, 4.20, -2.34, 122.26, 76.10, -0.256, 0.976, -0.016, 19:50:26.113, 1550339426113
42, 68.90, 71.39, 121.85, 78.22, -0.256, 0.976, -0.016, 19:50:26.113, 1550339426113
43, 84.70, 101.68, 43.05, 12.52, -0.256, 0.976, -0.016, 19:50:26.133, 1550339426133
44, 20.61, 22.24, 44.72, 14.23, -0.256, 0.976, -0.016, 19:50:26.133, 1550339426133
45, -8.52, -9.12, 108.16, 68.29, -0.256, 0.976, -0.016, 19:50:26.142, 1550339426142
46, 65.27, 76.69, 120.85, 82.74, -0.256, 0.976, -0.032, 19:50:26.142, 1550339426142
47, 86.01, 102.61, 45.68, 8.36, -0.256, 0.976, -0.032, 19:50:26.143, 1550339426143
48, -4.20, -3.31, 18.67, -20.13, -0.256, 0.976, -0.032, 19:50:26.143, 1550339426143
49, -21.98, -28.09, 93.01, 34.88, -0.256, 0.976, -0.032, 19:50:26.158, 1550339426158
50, 52.83, 62.07, 104.10, 51.90, -0.256, 0.976, -0.032, 19:50:26.158, 1550339426158
51, 87.42, 106.45, 57.41, 6.66, -0.256, 0.976, -0.032, 19:50:26.172, 1550339426172
52, 4.79, 14.02, 43.52, -5.62, -0.256, 0.976, -0.032, 19:50:26.172, 1550339426172
53, -0.40, -2.00, 128.80, 74.22, -0.256, 0.976, -0.032, 19:50:26.172, 1550339426172
54, 75.54, 88.51, 143.38, 95.21, -0.256, 0.976, -0.032, 19:50:26.172, 1550339426172
55, 86.13, 105.67, 47.46, 12.02, -0.256, 0.976, -0.032, 19:50:26.189, 1550339426189
56, 24.22, 24.56, 58.86, 17.16, -0.256, 0.976, -0.032, 19:50:26.189, 1550339426189
57, 5.82, -2.76, 127.86, 74.76, -0.256, 0.976, -0.032, 19:50:26.202, 1550339426202
58, 74.39, 82.39, 134.80, 86.10, -0.256, 0.976, -0.032, 19:50:26.202, 1550339426202
59, 81.65, 103.87, 50.47, 12.29, -0.256, 0.976, -0.032, 19:50:26.203, 1550339426203
60, 29.52, 30.25, 68.20, 21.40, -0.256, 0.976, -0.032, 19:50:26.203, 1550339426203
61, 0.23, -15.17, 111.67, 62.67, -0.256, 0.976, -0.032, 19:50:26.217, 1550339426217
62, 69.94, 75.79, 129.26, 73.12, -0.256, 0.976, -0.032, 19:50:26.217, 1550339426217
63, 96.53, 116.21, 72.58, 26.45, -0.256, 0.976, -0.032, 19:50:26.232, 1550339426232
64, 11.22, 11.47, 47.31, -6.26, -0.256, 0.976, -0.032, 19:50:26.232, 1550339426232
65, -15.54, -24.56, 100.13, 31.64, -0.256, 0.976, -0.032, 19:50:26.233, 1550339426233
66, 83.87, 92.27, 153.31, 92.09, -0.288, 0.976, -0.016, 19:50:26.233, 1550339426233
67, 86.52, 106.62, 55.53, 8.51, -0.288, 0.976, -0.016, 19:50:26.247, 1550339426247
68, -1.54, 0.36, 32.80, -28.24, -0.288, 0.976, -0.016, 19:50:26.247, 1550339426247
69, -6.24, -14.74, 123.30, 52.72, -0.288, 0.976, -0.016, 19:50:26.262, 1550339426262
70, 95.33, 103.49, 173.81, 107.15, -0.288, 0.976, -0.016, 19:50:26.262, 1550339426262
71, 77.24, 92.61, 38.93, -8.86, -0.288, 0.976, -0.016, 19:50:26.263, 1550339426263
72, 22.28, 26.27, 82.01, 4.95, -0.288, 0.976, -0.016, 19:50:26.263, 1550339426263
73, 16.73, 7.73, 151.44, 87.17, -0.288, 0.976, -0.016, 19:50:26.278, 1550339426278
74, 97.19, 106.10, 178.77, 110.64, -0.288, 0.976, -0.016, 19:50:26.278, 1550339426278
75, 114.39, 131.37, 116.81, 39.49, -0.288, 0.976, -0.016, 19:50:26.292, 1550339426292
76, 35.81, 36.66, 92.54, 31.54, -0.288, 0.976, -0.016, 19:50:26.292, 1550339426292
77, -56.81, -63.99, 34.39, -16.38, -0.288, 0.976, -0.016, 19:50:26.292, 1550339426292
78, 208.33, 211.24, 355.80, 262.26, -0.288, 0.976, -0.016, 19:50:26.292, 1550339426292
79, 165.08, 182.73, 148.50, 171.01, -0.288, 0.976, -0.016, 19:50:26.307, 1550339426307
80, -99.20, -105.21, -117.17, -146.47, -0.288, 0.976, -0.016, 19:50:26.307, 1550339426307
81, -101.87, -121.71, 11.62, -71.82, -0.288, 0.976, -0.016, 19:50:26.322, 1550339426322
82, 81.92, 62.02, 153.50, 161.86, -0.288, 0.976, -0.016, 19:50:26.322, 1550339426322
83, 15.64, 14.21, -29.19, -49.69, -0.288, 0.976, -0.016, 19:50:26.323, 1550339426323
84, -97.03, -107.14, -104.17, -157.73, -0.288, 0.976, -0.016, 19:50:26.323, 1550339426323
85, 19.92, 22.22, 146.37, 96.10, -0.288, 0.976, -0.016, 19:50:26.337, 1550339426337
86, 60.09, 76.85, 103.24, 42.95, -0.256, 0.960, -0.032, 19:50:26.337, 1550339426337
87, 151.72, 182.00, 164.38, 67.35, -0.256, 0.960, -0.032, 19:50:26.352, 1550339426352
88, 89.33, 100.48, 165.64, 88.10, -0.256, 0.960, -0.032, 19:50:26.352, 1550339426352
89, -20.39, -26.33, 141.94, -65.47, -0.256, 0.960, -0.032, 19:50:26.352, 1550339426352
90, -65.26, -53.63, -4.42, -242.33, -0.256, 0.960, -0.032, 19:50:26.352, 1550339426352
91, -29.55, -12.44, -0.96, -312.37, -0.256, 0.960, -0.032, 19:50:26.367, 1550339426367
92, 9.91, 11.82, 152.39, -120.09, -0.256, 0.960, -0.032, 19:50:26.367, 1550339426367
93, -26.49, -25.93, 207.14, -96.02, -0.256, 0.960, -0.032, 19:50:26.382, 1550339426382
94, 200.51, 213.38, 409.25, 196.57, -0.256, 0.960, -0.032, 19:50:26.382, 1550339426382
95, 158.23, 174.03, 249.47, 46.37, -0.256, 0.960, -0.032, 19:50:26.382, 1550339426382
96, 87.59, 93.02, 245.53, 38.75, -0.256, 0.960, -0.032, 19:50:26.382, 1550339426382
97, -129.48, -137.66, 11.00, -205.22, -0.256, 0.960, -0.032, 19:50:26.397, 1550339426397
98, -52.83, -43.05, -32.36, -123.63, -0.256, 0.960, -0.032, 19:50:26.397, 1550339426397
99, 164.72, 188.46, 178.51, 143.59, -0.256, 0.960, -0.032, 19:50:26.412, 1550339426412
100, 187.00, 189.77, 344.46, 231.44, -0.256, 0.960, -0.032, 19:50:26.412, 1550339426412
101, -17.50, -26.83, 145.42, -21.81, -0.256, 0.960, -0.032, 19:50:26.413, 1550339426413
102, 109.07, 107.82, 157.62, 169.80, -0.256, 0.960, -0.032, 19:50:26.413, 1550339426413
103, 85.28, 107.72, 88.40, -31.34, -0.256, 0.960, -0.032, 19:50:26.428, 1550339426428
104, -87.87, -88.42, -68.54, -205.55, -0.256, 0.960, -0.032, 19:50:26.428, 1550339426428
105, -39.93, -46.18, 82.88, -30.19, -0.256, 0.960, -0.032, 19:50:26.442, 1550339426442
106, 147.07, 155.74, 308.58, 122.57, -0.208, 0.784, 0.048, 19:50:26.442, 1550339426442
107, 60.91, 82.75, 27.97, -44.06, -0.208, 0.784, 0.048, 19:50:26.443, 1550339426443
108, 89.81, 97.07, 249.27, 37.25, -0.208, 0.784, 0.048, 19:50:26.443, 1550339426443
109, -173.93, -186.86, -91.72, -257.63, -0.208, 0.784, 0.048, 19:50:26.457, 1550339426457
110, 56.66, 61.30, 179.14, -13.65, -0.208, 0.784, 0.048, 19:50:26.457, 1550339426457
111, 133.13, 152.20, 165.79, 43.26, -0.208, 0.784, 0.048, 19:50:26.473, 1550339426473
112, -94.32, -95.83, -68.57, -203.03, -0.208, 0.784, 0.048, 19:50:26.473, 1550339426473
113, 3.91, -0.95, 178.07, 19.65, -0.208, 0.784, 0.048, 19:50:26.475, 1550339426475
114, 73.16, 78.74, 216.08, -10.37, -0.208, 0.784, 0.048, 19:50:26.475, 1550339426475
115, 188.37, 209.50, 233.95, 138.48, -0.208, 0.784, 0.048, 19:50:26.487, 1550339426487
116, -6.70, -0.88, 64.14, -67.39, -0.208, 0.784, 0.048, 19:50:26.487, 1550339426487
117, -91.05, -95.54, 43.45, -130.20, -0.208, 0.784, 0.048, 19:50:26.502, 1550339426502
118, 41.89, 47.73, 115.01, -2.15, -0.208, 0.784, 0.048, 19:50:26.502, 1550339426502
119, 345.13, 359.22, 465.53, 371.48, -0.208, 0.784, 0.048, 19:50:26.503, 1550339426503
120, 299.43, 298.19, 268.81, 136.82, -0.208, 0.784, 0.048, 19:50:26.503, 1550339426503
121, 472.64, 467.84, 656.60, 454.50, -0.208, 0.784, 0.048, 19:50:26.517, 1550339426517
122, 668.29, 676.32, 827.41, 683.58, -0.208, 0.784, 0.048, 19:50:26.517, 1550339426517
123, 570.69, 588.64, 583.35, 440.10, -0.208, 0.784, 0.048, 19:50:26.532, 1550339426532
124, 453.82, 458.87, 490.70, 399.59, -0.208, 0.784, 0.048, 19:50:26.532, 1550339426532
125, 538.22, 529.00, 758.56, 548.12, -0.208, 0.784, 0.048, 19:50:26.533, 1550339426533
126, 574.99, 582.98, 647.89, 579.64, -0.288, 0.976, 0.000, 19:50:26.533, 1550339426533
127, 460.62, 477.29, 434.84, 262.41, -0.288, 0.976, 0.000, 19:50:26.549, 1550339426549
128, 525.91, 531.09, 582.66, 522.82, -0.288, 0.976, 0.000, 19:50:26.549, 1550339426549
129, 482.62, 472.59, 645.04, 495.06, -0.288, 0.976, 0.000, 19:50:26.563, 1550339426563
130, 684.40, 686.99, 828.91, 719.16, -0.288, 0.976, 0.000, 19:50:26.563, 1550339426563
131, 575.92, 593.36, 599.81, 438.99, -0.288, 0.976, 0.000, 19:50:26.564, 1550339426564
132, 412.89, 415.57, 436.93, 327.41, -0.288, 0.976, 0.000, 19:50:26.564, 1550339426564
133, 456.01, 450.92, 585.73, 483.21, -0.288, 0.976, 0.000, 19:50:26.585, 1550339426585
134, 617.98, 630.33, 770.65, 590.28, -0.288, 0.976, 0.000, 19:50:26.585, 1550339426585
135, 589.40, 609.67, 591.68, 498.51, -0.288, 0.976, 0.000, 19:50:26.592, 1550339426592
136, 539.57, 538.17, 655.29, 488.62, -0.288, 0.976, 0.000, 19:50:26.592, 1550339426592
137, 397.76, 389.35, 530.59, 351.03, -0.288, 0.976, 0.000, 19:50:26.593, 1550339426593
138, 491.32, 498.61, 532.41, 452.77, -0.288, 0.976, 0.000, 19:50:26.593, 1550339426593
139, 571.48, 590.92, 579.09, 463.15, -0.288, 0.976, 0.000, 19:50:26.609, 1550339426609
140, 593.07, 596.82, 741.58, 564.63, -0.288, 0.976, 0.000, 19:50:26.609, 1550339426609
141, 510.31, 503.27, 660.69, 562.08, -0.288, 0.976, 0.000, 19:50:26.622, 1550339426622
142, 583.83, 592.21, 692.97, 566.60, -0.288, 0.976, 0.000, 19:50:26.622, 1550339426622
143, 454.09, 475.03, 397.33, 291.06, -0.288, 0.976, 0.000, 19:50:26.623, 1550339426623
144, 550.97, 555.05, 653.70, 520.40, -0.288, 0.976, 0.000, 19:50:26.623, 1550339426623
145, 506.88, 504.90, 682.81, 546.49, -0.288, 0.976, 0.000, 19:50:26.637, 1550339426637
146, 571.75, 583.41, 665.03, 552.26, -0.288, 0.960, 0.000, 19:50:26.637, 1550339426637
147, 560.46, 577.96, 552.96, 440.84, -0.288, 0.960, 0.000, 19:50:26.652, 1550339426652
148, 455.45, 456.23, 514.20, 372.41, -0.288, 0.960, 0.000, 19:50:26.652, 1550339426652
149, 522.78, 512.87, 664.31, 602.70, -0.288, 0.960, 0.000, 19:50:26.653, 1550339426653
150, 505.20, 509.78, 572.01, 435.45, -0.288, 0.960, 0.000, 19:50:26.653, 1550339426653
151, 635.48, 654.56, 669.14, 565.09, -0.288, 0.960, 0.000, 19:50:26.667, 1550339426667
152, 637.51, 640.47, 788.91, 640.74, -0.288, 0.960, 0.000, 19:50:26.667, 1550339426667
153, 403.21, 397.22, 487.39, 415.22, -0.288, 0.960, 0.000, 19:50:26.682, 1550339426682
154, 504.96, 508.97, 535.79, 477.27, -0.288, 0.960, 0.000, 19:50:26.682, 1550339426682
155, 490.49, 509.91, 439.97, 352.32, -0.288, 0.960, 0.000, 19:50:26.683, 1550339426683
156, 587.40, 587.34, 713.66, 578.93, -0.288, 0.960, 0.000, 19:50:26.683, 1550339426683
157, 598.82, 585.81, 787.92, 696.64, -0.288, 0.960, 0.000, 19:50:26.697, 1550339426697
158, 387.04, 397.15, 348.29, 317.22, -0.288, 0.960, 0.000, 19:50:26.697, 1550339426697
159, 581.69, 603.24, 529.98, 546.12, -0.288, 0.960, 0.000, 19:50:26.712, 1550339426712
160, 580.81, 580.58, 721.01, 536.57, -0.288, 0.960, 0.000, 19:50:26.712, 1550339426712
161, 457.85, 452.26, 566.03, 507.64, -0.288, 0.960, 0.000, 19:50:26.713, 1550339426713
162, 595.60, 602.30, 712.41, 570.93, -0.288, 0.960, 0.000, 19:50:26.713, 1550339426713
163, 705.40, 723.73, 728.55, 709.40, -0.288, 0.960, 0.000, 19:50:26.728, 1550339426728
164, 370.68, 369.28, 344.05, 287.33, -0.288, 0.960, 0.000, 19:50:26.728, 1550339426728
165, 385.62, 382.27, 482.78, 380.56, -0.288, 0.960, 0.000, 19:50:26.744, 1550339426744
166, 664.96, 676.47, 781.05, 718.15, -0.256, 0.976, -0.016, 19:50:26.744, 1550339426744
167, 545.68, 564.28, 487.21, 468.44, -0.256, 0.976, -0.016, 19:50:26.745, 1550339426745
168, 459.47, 457.05, 490.74, 405.45, -0.256, 0.976, -0.016, 19:50:26.745, 1550339426745
169, 602.33, 600.16, 786.19, 732.75, -0.256, 0.976, -0.016, 19:50:26.759, 1550339426759
170, 537.95, 545.14, 608.96, 502.88, -0.256, 0.976, -0.016, 19:50:26.759, 1550339426759
171, 498.47, 521.45, 430.29, 384.14, -0.256, 0.976, -0.016, 19:50:26.773, 1550339426773
172, 572.16, 580.11, 647.45, 599.58, -0.256, 0.976, -0.016, 19:50:26.773, 1550339426773
173, 496.56, 490.08, 644.20, 546.56, -0.256, 0.976, -0.016, 19:50:26.773, 1550339426773
174, 525.30, 533.13, 566.13, 509.77, -0.256, 0.976, -0.016, 19:50:26.773, 1550339426773
175, 578.20, 596.27, 548.31, 501.22, -0.256, 0.976, -0.016, 19:50:26.788, 1550339426788
176, 440.16, 439.22, 445.96, 398.70, -0.256, 0.976, -0.016, 19:50:26.788, 1550339426788
177, 543.99, 536.90, 706.37, 622.10, -0.256, 0.976, -0.016, 19:50:26.802, 1550339426802
178, 595.64, 603.78, 697.38, 581.93, -0.256, 0.976, -0.016, 19:50:26.802, 1550339426802
179, 564.53, 581.64, 534.61, 475.81, -0.256, 0.976, -0.016, 19:50:26.803, 1550339426803
180, 561.28, 562.50, 628.05, 586.14, -0.256, 0.976, -0.016, 19:50:26.803, 1550339426803
181, 432.61, 427.87, 562.36, 437.27, -0.256, 0.976, -0.016, 19:50:26.817, 1550339426817
182, 473.57, 480.90, 486.80, 433.03, -0.256, 0.976, -0.016, 19:50:26.817, 1550339426817
183, 647.35, 666.99, 659.34, 594.11, -0.256, 0.976, -0.016, 19:50:26.832, 1550339426832
184, 529.78, 531.77, 592.63, 519.28, -0.256, 0.976, -0.016, 19:50:26.832, 1550339426832
185, 487.14, 477.63, 602.79, 543.41, -0.256, 0.976, -0.016, 19:50:26.833, 1550339426833
186, 490.65, 499.14, 525.50, 453.18, -0.272, 0.976, -0.016, 19:50:26.833, 1550339426833
187, 703.92, 718.70, 739.93, 684.32, -0.272, 0.976, -0.016, 19:50:26.847, 1550339426847
188, 439.63, 437.67, 467.12, 364.45, -0.272, 0.976, -0.016, 19:50:26.847, 1550339426847
189, 459.50, 447.55, 551.31, 512.40, -0.272, 0.976, -0.016, 19:50:26.862, 1550339426862
190, 648.47, 655.67, 747.98, 700.62, -0.272, 0.976, -0.016, 19:50:26.862, 1550339426862
191, 575.65, 594.41, 539.56, 501.36, -0.272, 0.976, -0.016, 19:50:26.863, 1550339426863
192, 471.86, 476.71, 524.40, 422.17, -0.272, 0.976, -0.016, 19:50:26.863, 1550339426863
193, 487.91, 480.34, 612.55, 547.05, -0.272, 0.976, -0.016, 19:50:26.878, 1550339426878
194, 565.84, 576.78, 641.00, 577.63, -0.272, 0.976, -0.016, 19:50:26.878, 1550339426878
195, 652.61, 672.76, 686.67, 584.25, -0.272, 0.976, -0.016, 19:50:26.892, 1550339426892
196, 383.86, 383.78, 369.37, 306.39, -0.272, 0.976, -0.016, 19:50:26.892, 1550339426892
197, 532.73, 528.27, 646.87, 651.42, -0.272, 0.976, -0.016, 19:50:26.893, 1550339426893
198, 497.82, 510.44, 554.17, 438.34, -0.272, 0.976, -0.016, 19:50:26.893, 1550339426893
199, 662.85, 683.28, 686.24, 634.19, -0.272, 0.976, -0.016, 19:50:26.908, 1550339426908
200, 380.68, 380.76, 356.40, 308.44, -0.272, 0.976, -0.016, 19:50:26.908, 1550339426908
0, -1.71, -10.98, 127.68, 49.98, -0.272, 0.976, -0.016, 19:50:26.908, 1550339426908
1, 197.84, 201.35, 325.46, 244.03, -0.272, 0.976, -0.016, 19:50:26.923, 1550339426923
2, 68.69, 84.19, 41.42, -32.46, -0.272, 0.976, -0.016, 19:50:26.923, 1550339426923
3, -28.81, -28.24, -25.02, -44.87, -0.272, 0.976, -0.016, 19:50:26.937, 1550339426937
4, -12.03, -14.67, 100.63, 54.50, -0.272, 0.976, -0.016, 19:50:26.937, 1550339426937
5, 165.74, 174.92, 322.30, 179.76, -0.272, 0.976, -0.016, 19:50:26.938, 1550339426938
6, -27.71, -16.21, -123.82, -153.05, -0.272, 0.960, 0.000, 19:50:26.938, 1550339426938
7, 61.18, 62.40, 138.92, 63.92, -0.272, 0.960, 0.000, 19:50:26.952, 1550339426952
8, -0.57, -6.38, 123.97, 60.58, -0.272, 0.960, 0.000, 19:50:26.952, 1550339426952
9, 72.12, 82.81, 133.43, 74.68, -0.272, 0.960, 0.000, 19:50:26.968, 1550339426968
10, 53.92, 73.52, 15.53, -52.21, -0.272, 0.960, 0.000, 19:50:26.968, 1550339426968
11, 1.98, 1.99, 38.14, -11.99, -0.272, 0.960, 0.000, 19:50:26.968, 1550339426968
12, 92.16, 81.77, 270.74, 177.61, -0.272, 0.960, 0.000, 19:50:26.968, 1550339426968
13, 67.54, 71.74, 123.95, 55.18, -0.272, 0.960, 0.000, 19:50:26.982, 1550339426982
14, 17.49, 39.39, -81.40, -47.09, -0.272, 0.960, 0.000, 19:50:26.982, 1550339426982
15, -25.76, -20.03, 24.74, -80.35, -0.272, 0.960, 0.000, 19:50:26.997, 1550339426997
16, 40.63, 32.11, 197.95, 114.45, -0.272, 0.960, 0.000, 19:50:26.997, 1550339426997
17, 63.74, 74.09, 106.86, 70.79, -0.272, 0.960, 0.000, 19:50:26.998, 1550339426998
18, 123.33, 142.52, 88.24, 97.58, -0.272, 0.960, 0.000, 19:50:26.998, 1550339426998
19, 43.94, 48.39, 126.37, 24.44, -0.272, 0.960, 0.000, 19:50:27.013, 1550339427013
20, -54.91, -58.18, 48.15, -13.16, -0.272, 0.960, 0.000, 19:50:27.013, 1550339427013
21, 26.17, 31.11, 56.56, 9.22, -0.272, 0.960, 0.000, 19:50:27.028, 1550339427028
22, 163.03, 183.07, 185.94, 117.33, -0.272, 0.960, 0.000, 19:50:27.028, 1550339427028
23, -41.66, -40.77, -15.15, -96.14, -0.272, 0.960, 0.000, 19:50:27.035, 1550339427035
24, 64.74, 54.09, 185.39, 190.40, -0.272, 0.960, 0.000, 19:50:27.035, 1550339427035
25, -18.62, -10.43, 4.00, -78.24, -0.272, 0.960, 0.000, 19:50:27.043, 1550339427043
26, 116.69, 135.51, 115.51, 36.74, -0.272, 0.960, -0.016, 19:50:27.043, 1550339427043
27, 10.64, 8.53, 39.85, 1.36, -0.272, 0.960, -0.016, 19:50:27.058, 1550339427058
28, 99.77, 92.73, 283.69, 201.16, -0.272, 0.960, -0.016, 19:50:27.058, 1550339427058
29, -9.73, 3.32, 8.48, -35.43, -0.272, 0.960, -0.016, 19:50:27.058, 1550339427058
30, 151.04, 172.40, 164.39, 100.22, -0.272, 0.960, -0.016, 19:50:27.058, 1550339427058
31, 4.25, 5.75, 36.06, -2.14, -0.272, 0.960, -0.016, 19:50:27.073, 1550339427073
32, -104.62, -113.34, -29.64, -100.15, -0.272, 0.960, -0.016, 19:50:27.073, 1550339427073
33, 69.33, 75.37, 116.39, 76.02, -0.272, 0.960, -0.016, 19:50:27.088, 1550339427088
34, 127.75, 145.11, 119.77, 64.53, -0.272, 0.960, -0.016, 19:50:27.088, 1550339427088
35, -42.58, -43.62, -23.61, -77.72, -0.272, 0.960, -0.016, 19:50:27.088, 1550339427088
36, 101.64, 91.18, 319.07, 181.01, -0.272, 0.960, -0.016, 19:50:27.088, 1550339427088
37, 39.76, 43.25, 57.10, 36.02, -0.272, 0.960, -0.016, 19:50:27.102, 1550339427102
38, 90.90, 109.67, 63.65, 19.56, -0.272, 0.960, -0.016, 19:50:27.102, 1550339427102
39, 25.50, 29.75, 103.44, -6.63, -0.272, 0.960, -0.016, 19:50:27.117, 1550339427117
40, 32.22, 25.08, 165.49, 120.31, -0.272, 0.960, -0.016, 19:50:27.117, 1550339427117
41, -22.08, -13.50, -6.87, -71.81, -0.272, 0.960, -0.016, 19:50:27.118, 1550339427118
42, 67.85, 84.03, 23.12, -16.77, -0.272, 0.960, -0.016, 19:50:27.118, 1550339427118
43, 21.74, 19.47, 62.56, 14.98, -0.272, 0.960, -0.016, 19:50:27.132, 1550339427132
44, 30.54, 20.25, 171.35, 96.38, -0.272, 0.960, -0.016, 19:50:27.132, 1550339427132
45, 121.76, 131.36, 216.07, 127.75, -0.272, 0.960, -0.016, 19:50:27.147, 1550339427147
46, 95.83, 116.25, 81.20, 20.48, -0.272, 0.976, 0.000, 19:50:27.147, 1550339427147
47, -9.19, -4.96, 0.52, -4.04, -0.272, 0.976, 0.000, 19:50:27.147, 1550339427147
48, -55.03, -59.01, 62.52, -33.18, -0.272, 0.976, 0.000, 19:50:27.147, 1550339427147
49, 108.06, 122.76, 174.83, 143.38, -0.272, 0.976, 0.000, 19:50:27.162, 1550339427162
50, 45.38, 64.83, 4.93, -48.73, -0.272, 0.976, 0.000, 19:50:27.162, 1550339427162
51, 24.22, 18.08, 72.32, 8.17, -0.272, 0.976, 0.000, 19:50:27.177, 1550339427177
52, -40.92, -48.95, 60.85, 3.35, -0.272, 0.976, 0.000, 19:50:27.177, 1550339427177
53, 91.74, 98.49, 152.19, 118.63, -0.272, 0.976, 0.000, 19:50:27.177, 1550339427177
54, 152.66, 175.89, 158.98, 112.19, -0.272, 0.976, 0.000, 19:50:27.177, 1550339427177
55, -63.41, -63.14, -23.80, -144.92, -0.272, 0.976, 0.000, 19:50:27.192, 1550339427192
56, -4.29, -7.91, 126.95, 55.18, -0.272, 0.976, 0.000, 19:50:27.192, 1550339427192
57, 73.69, 83.85, 127.29, 83.66, -0.272, 0.976, 0.000, 19:50:27.207, 1550339427207
58, 82.06, 102.33, 43.65, 7.85, -0.272, 0.976, 0.000, 19:50:27.207, 1550339427207
59, 21.07, 27.12, 81.18, 10.41, -0.272, 0.976, 0.000, 19:50:27.208, 1550339427208
60, -7.67, -15.38, 110.13, 51.88, -0.272, 0.976, 0.000, 19:50:27.208, 1550339427208
61, 93.17, 98.46, 154.45, 96.38, -0.272, 0.976, 0.000, 19:50:27.222, 1550339427222
62, 89.09, 109.34, 54.22, 12.14, -0.272, 0.976, 0.000, 19:50:27.222, 1550339427222
63, 3.80, 7.47, 42.41, -11.56, -0.272, 0.976, 0.000, 19:50:27.237, 1550339427237
64, 17.71, 7.17, 149.50, 90.00, -0.272, 0.976, 0.000, 19:50:27.237, 1550339427237
65, 81.34, 86.71, 138.92, 78.33, -0.272, 0.976, 0.000, 19:50:27.239, 1550339427239
66, 94.65, 112.46, 68.05, 20.87, -0.256, 0.976, -0.016, 19:50:27.239, 1550339427239
67, 18.48, 19.31, 67.14, 14.99, -0.256, 0.976, -0.016, 19:50:27.253, 1550339427253
68, 6.13, -3.72, 124.10, 73.48, -0.256, 0.976, -0.016, 19:50:27.253, 1550339427253
69, 78.94, 87.43, 134.39, 88.87, -0.256, 0.976, -0.016, 19:50:27.267, 1550339427267
70, 109.05, 124.84, 77.87, 50.44, -0.256, 0.976, -0.016, 19:50:27.267, 1550339427267
71, 17.86, 20.12, 52.08, 28.46, -0.256, 0.976, -0.016, 19:50:27.268, 1550339427268
72, 9.26, -1.19, 120.17, 97.56, -0.256, 0.976, -0.016, 19:50:27.268, 1550339427268
73, 94.02, 104.51, 139.22, 137.60, -0.256, 0.976, -0.016, 19:50:27.282, 1550339427282
74, 98.77, 119.06, 50.59, 63.44, -0.256, 0.976, -0.016, 19:50:27.282, 1550339427282
75, 26.70, 30.14, 46.56, 63.53, -0.256, 0.976, -0.016, 19:50:27.297, 1550339427297
76, 14.44, 13.53, 109.10, 125.55, -0.256, 0.976, -0.016, 19:50:27.297, 1550339427297
77, 97.72, 108.32, 130.45, 163.73, -0.256, 0.976, -0.016, 19:50:27.298, 1550339427298
78, 109.36, 128.71, 41.53, 87.92, -0.256, 0.976, -0.016, 19:50:27.298, 1550339427298
79, 29.32, 35.87, 29.21, 84.60, -0.256, 0.976, -0.016, 19:50:27.319, 1550339427319
80, 15.71, 4.83, 93.48, 145.26, -0.256, 0.976, -0.016, 19:50:27.319, 1550339427319
81, 91.97, 99.82, 103.14, 164.75, -0.256, 0.976, -0.016, 19:50:27.327, 1550339427327
82, 101.36, 121.40, 21.03, 88.47, -0.256, 0.976, -0.016, 19:50:27.327, 1550339427327
83, 17.51, 18.16, 13.26, 71.36, -0.256, 0.976, -0.016, 19:50:27.328, 1550339427328
84, -5.87, -4.05, 82.54, 128.63, -0.256, 0.976, -0.016, 19:50:27.328, 1550339427328
85, 81.42, 90.86, 92.05, 140.99, -0.256, 0.976, -0.016, 19:50:27.342, 1550339427342
86, 91.09, 103.18, 11.14, 59.43, -0.256, 0.960, -0.016, 19:50:27.342, 1550339427342
87, 15.89, 18.09, 11.86, 48.94, -0.256, 0.960, -0.016, 19:50:27.358, 1550339427358
88, 4.26, -4.29, 82.33, 95.68, -0.256, 0.960, -0.016, 19:50:27.358, 1550339427358
89, 71.50, 77.63, 87.45, 96.24, -0.256, 0.960, -0.016, 19:50:27.358, 1550339427358
90, 91.12, 108.88, 27.39, 40.89, -0.256, 0.960, -0.016, 19:50:27.358, 1550339427358
91, 8.63, 7.64, 13.18, 20.26, -0.256, 0.960, -0.016, 19:50:27.372, 1550339427372
92, 0.77, -5.18, 92.68, 87.95, -0.256, 0.960, -0.016, 19:50:27.372, 1550339427372
93, 73.80, 84.12, 99.31, 112.02, -0.256, 0.960, -0.016, 19:50:27.387, 1550339427387
94, 91.32, 109.12, 30.58, 59.15, -0.256, 0.960, -0.016, 19:50:27.387, 1550339427387
95, 12.70, 18.09, 22.72, 45.60, -0.256, 0.960, -0.016, 19:50:27.388, 1550339427388
96, 0.25, 0.12, 93.11, 117.36, -0.256, 0.960, -0.016, 19:50:27.388, 1550339427388
97, 78.01, 91.62, 110.40, 140.30, -0.256, 0.960, -0.016, 19:50:27.403, 1550339427403
98, 95.29, 109.93, 32.61, 66.45, -0.256, 0.960, -0.016, 19:50:27.403, 1550339427403
99, 21.93, 18.67, 30.44, 46.41, -0.256, 0.960, -0.016, 19:50:27.417, 1550339427417
100, 6.99, -4.46, 95.01, 97.43, -0.256, 0.960, -0.016, 19:50:27.417, 1550339427417
101, 77.52, 82.77, 105.66, 103.60, -0.256, 0.960, -0.016, 19:50:27.419, 1550339427419
102, 79.62, 100.18, 21.96, 22.71, -0.256, 0.960, -0.016, 19:50:27.419, 1550339427419
103, 12.61, 12.93, 28.84, 15.95, -0.256, 0.960, -0.016, 19:50:27.433, 1550339427433
104, -0.25, -6.92, 102.33, 75.64, -0.256, 0.960, -0.016, 19:50:27.433, 1550339427433
105, 70.91, 75.78, 107.42, 81.58, -0.256, 0.960, -0.016, 19:50:27.448, 1550339427448
106, 82.72, 98.12, 36.32, 15.92, -0.272, 0.912, -0.016, 19:50:27.448, 1550339427448
107, 6.11, 7.18, 32.73, -0.74, -0.272, 0.912, -0.016, 19:50:27.448, 1550339427448
108, -10.22, -15.53, 95.75, 52.80, -0.272, 0.912, -0.016, 19:50:27.448, 1550339427448
109, 64.43, 72.51, 106.11, 70.52, -0.272, 0.912, -0.016, 19:50:27.463, 1550339427463
110, 79.86, 101.03, 34.71, 9.74, -0.272, 0.912, -0.016, 19:50:27.463, 1550339427463
111, 6.95, 8.28, 40.85, 10.65, -0.272, 0.912, -0.016, 19:50:27.477, 1550339427477
112, 7.44, 1.32, 124.01, 90.96, -0.272, 0.912, -0.016, 19:50:27.477, 1550339427477
113, 85.44, 95.01, 139.84, 111.10, -0.272, 0.912, -0.016, 19:50:27.477, 1550339427477
114, 94.02, 116.54, 62.39, 42.67, -0.272, 0.912, -0.016, 19:50:27.477, 1550339427477
115, 18.28, 21.64, 54.85, 27.56, -0.272, 0.912, -0.016, 19:50:27.492, 1550339427492
116, 6.25, -2.67, 118.19, 84.45, -0.272, 0.912, -0.016, 19:50:27.492, 1550339427492
117, 77.87, 83.87, 122.50, 92.77, -0.272, 0.912, -0.016, 19:50:27.507, 1550339427507
118, 88.44, 106.44, 49.33, 27.30, -0.272, 0.912, -0.016, 19:50:27.507, 1550339427507
119, 12.63, 18.46, 43.29, 14.11, -0.272, 0.912, -0.016, 19:50:27.507, 1550339427507
120, -4.09, -11.42, 106.47, 68.41, -0.272, 0.912, -0.016, 19:50:27.507, 1550339427507
121, 81.27, 87.03, 131.72, 97.70, -0.272, 0.912, -0.016, 19:50:27.522, 1550339427522
122, 85.74, 104.80, 48.63, 19.05, -0.272, 0.912, -0.016, 19:50:27.522, 1550339427522
123, 8.21, 10.73, 46.49, 8.19, -0.272, 0.912, -0.016, 19:50:27.537, 1550339427537
124, 0.63, -2.77, 111.02, 65.20, -0.272, 0.912, -0.016, 19:50:27.537, 1550339427537
125, 69.07, 75.50, 118.15, 73.73, -0.272, 0.912, -0.016, 19:50:27.537, 1550339427537
126, 85.31, 102.47, 51.87, 11.23, -0.288, 0.976, -0.032, 19:50:27.537, 1550339427537
127, 9.91, 12.27, 45.90, -8.40, -0.288, 0.976, -0.032, 19:50:27.552, 1550339427552
128, -5.06, -13.61, 113.50, 48.36, -0.288, 0.976, -0.032, 19:50:27.552, 1550339427552
129, 68.32, 75.73, 124.47, 58.85, -0.288, 0.976, -0.032, 19:50:27.567, 1550339427567
130, 92.40, 108.91, 66.57, 10.35, -0.288, 0.976, -0.032, 19:50:27.567, 1550339427567
131, 11.45, 10.65, 56.63, -2.95, -0.288, 0.976, -0.032, 19:50:27.568, 1550339427568
132, -1.14, -5.83, 129.99, 59.83, -0.288, 0.976, -0.032, 19:50:27.568, 1550339427568
133, 73.04, 83.89, 134.53, 71.30, -0.288, 0.976, -0.032, 19:50:27.582, 1550339427582
134, 86.09, 105.43, 59.11, 2.88, -0.288, 0.976, -0.032, 19:50:27.582, 1550339427582
135, 7.58, 11.93, 53.96, -7.15, -0.288, 0.976, -0.032, 19:50:27.597, 1550339427597
136, 2.80, -3.98, 137.91, 58.32, -0.288, 0.976, -0.032, 19:50:27.597, 1550339427597
137, 74.60, 82.46, 141.12, 61.88, -0.288, 0.976, -0.032, 19:50:27.598, 1550339427598
138, 81.35, 104.76, 69.20, 3.82, -0.288, 0.976, -0.032, 19:50:27.598, 1550339427598
139, 6.91, 11.70, 59.05, -13.05, -0.288, 0.976, -0.032, 19:50:27.612, 1550339427612
140, 0.89, -5.01, 134.47, 57.76, -0.288, 0.976, -0.032, 19:50:27.612, 1550339427612
141, 79.05, 84.40, 146.19, 74.73, -0.288, 0.976, -0.032, 19:50:27.627, 1550339427627
142, 83.97, 106.41, 59.87, 2.69, -0.288, 0.976, -0.032, 19:50:27.627, 1550339427627
143, 13.03, 15.88, 62.91, -4.73, -0.288, 0.976, -0.032, 19:50:27.629, 1550339427629
144, 9.32, -1.58, 140.39, 59.25, -0.288, 0.976, -0.032, 19:50:27.629, 1550339427629
145, 73.16, 83.02, 141.28, 69.48, -0.288, 0.976, -0.032, 19:50:27.642, 1550339427642
146, 81.66, 100.98, 62.07, -4.52, -0.272, 0.976, -0.032, 19:50:27.642, 1550339427642
147, 11.73, 11.78, 64.43, -13.69, -0.272, 0.976, -0.032, 19:50:27.657, 1550339427657
148, -3.97, -13.12, 132.18, 41.80, -0.272, 0.976, -0.032, 19:50:27.657, 1550339427657
149, 72.58, 79.29, 144.67, 64.08, -0.272, 0.976, -0.032, 19:50:27.658, 1550339427658
150, 83.55, 109.89, 71.54, -1.22, -0.272, 0.976, -0.032, 19:50:27.658, 1550339427658
151, 12.16, 9.71, 59.43, -11.29, -0.272, 0.976, -0.032, 19:50:27.672, 1550339427672
152, -2.23, -13.92, 126.09, 46.68, -0.272, 0.976, -0.032, 19:50:27.672, 1550339427672
153, 75.45, 84.94, 141.73, 62.95, -0.272, 0.976, -0.032, 19:50:27.688, 1550339427688
154, 84.22, 107.47, 66.47, -5.90, -0.272, 0.976, -0.032, 19:50:27.688, 1550339427688
155, 5.19, 9.34, 52.14, -15.11, -0.272, 0.976, -0.032, 19:50:27.688, 1550339427688
156, 4.12, -7.92, 131.78, 54.87, -0.272, 0.976, -0.032, 19:50:27.688, 1550339427688
157, 74.93, 80.34, 142.00, 68.11, -0.272, 0.976, -0.032, 19:50:27.702, 1550339427702
158, 85.56, 100.94, 65.45, 3.05, -0.272, 0.976, -0.032, 19:50:27.702, 1550339427702
159, 1.39, 5.23, 50.38, -18.99, -0.272, 0.976, -0.032, 19:50:27.718, 1550339427718
160, -4.15, -10.11, 129.55, 43.75, -0.272, 0.976, -0.032, 19:50:27.718, 1550339427718
161, 71.33, 80.24, 140.83, 59.24, -0.272, 0.976, -0.032, 19:50:27.718, 1550339427718
162, 86.46, 104.47, 71.98, 4.85, -0.272, 0.976, -0.032, 19:50:27.718, 1550339427718
163, 14.95, 19.39, 68.13, -3.09, -0.272, 0.976, -0.032, 19:50:27.733, 1550339427733
164, -1.61, -12.14, 128.68, 52.09, -0.272, 0.976, -0.032, 19:50:27.733, 1550339427733
165, 70.51, 81.34, 135.71, 66.00, -0.272, 0.976, -0.032, 19:50:27.748, 1550339427748
166, 88.25, 108.85, 67.85, 6.02, -0.272, 0.992, -0.032, 19:50:27.748, 1550339427748
167, 8.14, 11.25, 54.54, -11.64, -0.272, 0.992, -0.032, 19:50:27.749, 1550339427749
168, 0.11, -6.11, 134.86, 58.91, -0.272, 0.992, -0.032, 19:50:27.749, 1550339427749
169, 78.05, 91.21, 145.85, 79.61, -0.272, 0.992, -0.032, 19:50:27.763, 1550339427763
170, 91.69, 110.10, 67.46, 8.73, -0.272, 0.992, -0.032, 19:50:27.763, 1550339427763
171, 4.28, 8.21, 50.78, -11.74, -0.272, 0.992, -0.032, 19:50:27.777, 1550339427777
172, 5.42, -2.81, 141.28, 65.63, -0.272, 0.992, -0.032, 19:50:27.777, 1550339427777
173, 75.35, 81.52, 138.71, 70.47, -0.272, 0.992, -0.032, 19:50:27.778, 1550339427778
174, 81.32, 99.74, 55.33, 3.88, -0.272, 0.992, -0.032, 19:50:27.778, 1550339427778
175, 5.39, 9.84, 50.85, -7.80, -0.272, 0.992, -0.032, 19:50:27.800, 1550339427800
176, 1.78, -4.93, 126.06, 64.08, -0.272, 0.992, -0.032, 19:50:27.800, 1550339427800
177, 74.59, 86.69, 133.70, 77.57, -0.272, 0.992, -0.032, 19:50:27.808, 1550339427808
178, 90.52, 106.24, 60.69, 16.91, -0.272, 0.992, -0.032, 19:50:27.808, 1550339427808
179, 4.14, 0.99, 40.30, -13.51, -0.272, 0.992, -0.032, 19:50:27.808, 1550339427808
180, -4.56, -9.50, 122.41, 56.13, -0.272, 0.992, -0.032, 19:50:27.808, 1550339427808
181, 73.14, 82.96, 133.30, 68.08, -0.272, 0.992, -0.032, 19:50:27.838, 1550339427838
182, 86.09, 102.69, 63.73, 4.91, -0.272, 0.992, -0.032, 19:50:27.838, 1550339427838
183, 9.13, 8.09, 55.60, -8.14, -0.272, 0.992, -0.032, 19:50:27.838, 1550339427838
184, -0.40, -8.48, 123.29, 55.92, -0.272, 0.992, -0.032, 19:50:27.838, 1550339427838
185, 74.61, 85.69, 135.76, 73.95, -0.272, 0.992, -0.032, 19:50:27.839, 1550339427839
186, 83.75, 102.33, 57.98, 7.00, -0.256, 0.976, -0.032, 19:50:27.839, 1550339427839
187, 10.10, 10.15, 56.38, -2.26, -0.256, 0.976, -0.032, 19:50:27.853, 1550339427853
188, -2.66, -7.81, 121.96, 58.66, -0.256, 0.976, -0.032, 19:50:27.853, 1550339427853
189, 77.16, 83.62, 132.14, 77.37, -0.256, 0.976, -0.032, 19:50:27.868, 1550339427868
190, 87.51, 108.69, 61.70, 14.16, -0.256, 0.976, -0.032, 19:50:27.868, 1550339427868
191, 8.40, 11.31, 51.12, -4.13, -0.256, 0.976, -0.032, 19:50:27.868, 1550339427868
192, -1.58, -11.98, 125.68, 58.98, -0.256, 0.976, -0.032, 19:50:27.868, 1550339427868
193, 71.00, 81.20, 131.57, 70.25, -0.256, 0.976, -0.032, 19:50:27.882, 1550339427882
194, 80.05, 99.52, 53.70, 2.40, -0.256, 0.976, -0.032, 19:50:27.882, 1550339427882
195, 11.55, 14.08, 54.21, -1.89, -0.256, 0.976, -0.032, 19:50:27.897, 1550339427897
196, -3.45, -9.42, 126.31, 56.14, -0.256, 0.976, -0.032, 19:50:27.897, 1550339427897
197, 74.96, 84.30, 140.95, 70.56, -0.256, 0.976, -0.032, 19:50:27.898, 1550339427898
198, 85.12, 102.80, 57.68, 2.00, -0.256, 0.976, -0.032, 19:50:27.898, 1550339427898
199, 10.38, 10.97, 55.01, -3.75, -0.256, 0.976, -0.032, 19:50:27.912, 1550339427912
200, 4.27, -5.52, 131.01, 63.67, -0.256, 0.976, -0.032, 19:50:27.912, 1550339427912
0, 76.56, 82.99, 135.68, 73.28, -0.256, 0.976, -0.032, 19:50:27.913, 1550339427913
1, 93.06, 112.97, 71.53, 13.77, -0.256, 0.976, -0.032, 19:50:27.927, 1550339427927
2, 10.73, 9.02, 53.15, -8.77, -0.256, 0.976, -0.032, 19:50:27.927, 1550339427927
3, 2.49, -4.80, 131.52, 66.06, -0.256, 0.976, -0.032, 19:50:27.942, 1550339427942
4, 71.59, 80.23, 133.95, 71.96, -0.256, 0.976, -0.032, 19:50:27.942, 1550339427942
5, 82.39, 98.99, 57.95, 4.15, -0.256, 0.976, -0.032, 19:50:27.943, 1550339427943
6, 9.79, 15.26, 53.04, 0.47, -0.272, 0.960, -0.048, 19:50:27.943, 1550339427943
7, 0.77, -7.78, 119.39, 58.42, -0.272, 0.960, -0.048, 19:50:27.957, 1550339427957
8, 74.74, 80.50, 134.97, 69.38, -0.272, 0.960, -0.048, 19:50:27.957, 1550339427957
9, 84.45, 104.49, 59.80, -0.59, -0.272, 0.960, -0.048, 19:50:27.972, 1550339427972
10, 11.23, 11.20, 56.83, -5.70, -0.272, 0.960, -0.048, 19:50:27.972, 1550339427972
11, 3.79, -2.12, 136.61, 66.01, -0.272, 0.960, -0.048, 19:50:27.972, 1550339427972
12, 75.52, 80.36, 142.28, 75.72, -0.272, 0.960, -0.048, 19:50:27.972, 1550339427972
13, 90.99, 107.48, 66.61, 9.80, -0.272, 0.960, -0.048, 19:50:27.987, 1550339427987
14, 9.12, 8.77, 51.42, -5.33, -0.272, 0.960, -0.048, 19:50:27.987, 1550339427987
